#  E (eV)   dos(E)     Int dos(E) EFermi =   -2.603 eV
 -15.000  0.3960E+00  0.3960E-02
 -14.990  0.4025E+00  0.7985E-02
 -14.980  0.4091E+00  0.1208E-01
 -14.970  0.4157E+00  0.1623E-01
 -14.960  0.4221E+00  0.2045E-01
 -14.950  0.4281E+00  0.2474E-01
 -14.940  0.4336E+00  0.2907E-01
 -14.930  0.4384E+00  0.3346E-01
 -14.920  0.4425E+00  0.3788E-01
 -14.910  0.4457E+00  0.4234E-01
 -14.900  0.4480E+00  0.4682E-01
 -14.890  0.4494E+00  0.5131E-01
 -14.880  0.4497E+00  0.5581E-01
 -14.870  0.4491E+00  0.6030E-01
 -14.860  0.4476E+00  0.6478E-01
 -14.850  0.4452E+00  0.6923E-01
 -14.840  0.4421E+00  0.7365E-01
 -14.830  0.4384E+00  0.7803E-01
 -14.820  0.4341E+00  0.8237E-01
 -14.810  0.4294E+00  0.8667E-01
 -14.800  0.4244E+00  0.9091E-01
 -14.790  0.4193E+00  0.9511E-01
 -14.780  0.4142E+00  0.9925E-01
 -14.770  0.4092E+00  0.1033E+00
 -14.760  0.4044E+00  0.1074E+00
 -14.750  0.3999E+00  0.1114E+00
 -14.740  0.3957E+00  0.1153E+00
 -14.730  0.3920E+00  0.1193E+00
 -14.720  0.3888E+00  0.1231E+00
 -14.710  0.3860E+00  0.1270E+00
 -14.700  0.3838E+00  0.1308E+00
 -14.690  0.3820E+00  0.1347E+00
 -14.680  0.3807E+00  0.1385E+00
 -14.670  0.3798E+00  0.1423E+00
 -14.660  0.3793E+00  0.1461E+00
 -14.650  0.3792E+00  0.1499E+00
 -14.640  0.3792E+00  0.1536E+00
 -14.630  0.3794E+00  0.1574E+00
 -14.620  0.3796E+00  0.1612E+00
 -14.610  0.3798E+00  0.1650E+00
 -14.600  0.3799E+00  0.1688E+00
 -14.590  0.3798E+00  0.1726E+00
 -14.580  0.3794E+00  0.1764E+00
 -14.570  0.3787E+00  0.1802E+00
 -14.560  0.3777E+00  0.1840E+00
 -14.550  0.3763E+00  0.1878E+00
 -14.540  0.3745E+00  0.1915E+00
 -14.530  0.3724E+00  0.1952E+00
 -14.520  0.3700E+00  0.1989E+00
 -14.510  0.3674E+00  0.2026E+00
 -14.500  0.3645E+00  0.2062E+00
 -14.490  0.3616E+00  0.2099E+00
 -14.480  0.3586E+00  0.2134E+00
 -14.470  0.3556E+00  0.2170E+00
 -14.460  0.3527E+00  0.2205E+00
 -14.450  0.3499E+00  0.2240E+00
 -14.440  0.3474E+00  0.2275E+00
 -14.430  0.3450E+00  0.2309E+00
 -14.420  0.3428E+00  0.2344E+00
 -14.410  0.3409E+00  0.2378E+00
 -14.400  0.3392E+00  0.2412E+00
 -14.390  0.3376E+00  0.2446E+00
 -14.380  0.3362E+00  0.2479E+00
 -14.370  0.3349E+00  0.2513E+00
 -14.360  0.3337E+00  0.2546E+00
 -14.350  0.3326E+00  0.2579E+00
 -14.340  0.3316E+00  0.2612E+00
 -14.330  0.3306E+00  0.2645E+00
 -14.320  0.3298E+00  0.2678E+00
 -14.310  0.3291E+00  0.2711E+00
 -14.300  0.3285E+00  0.2744E+00
 -14.290  0.3282E+00  0.2777E+00
 -14.280  0.3281E+00  0.2810E+00
 -14.270  0.3283E+00  0.2843E+00
 -14.260  0.3287E+00  0.2876E+00
 -14.250  0.3294E+00  0.2908E+00
 -14.240  0.3304E+00  0.2942E+00
 -14.230  0.3317E+00  0.2975E+00
 -14.220  0.3331E+00  0.3008E+00
 -14.210  0.3347E+00  0.3041E+00
 -14.200  0.3362E+00  0.3075E+00
 -14.190  0.3377E+00  0.3109E+00
 -14.180  0.3390E+00  0.3143E+00
 -14.170  0.3400E+00  0.3177E+00
 -14.160  0.3406E+00  0.3211E+00
 -14.150  0.3407E+00  0.3245E+00
 -14.140  0.3404E+00  0.3279E+00
 -14.130  0.3394E+00  0.3313E+00
 -14.120  0.3380E+00  0.3347E+00
 -14.110  0.3360E+00  0.3380E+00
 -14.100  0.3336E+00  0.3414E+00
 -14.090  0.3308E+00  0.3447E+00
 -14.080  0.3277E+00  0.3479E+00
 -14.070  0.3244E+00  0.3512E+00
 -14.060  0.3210E+00  0.3544E+00
 -14.050  0.3178E+00  0.3576E+00
 -14.040  0.3146E+00  0.3607E+00
 -14.030  0.3117E+00  0.3638E+00
 -14.020  0.3092E+00  0.3669E+00
 -14.010  0.3069E+00  0.3700E+00
 -14.000  0.3051E+00  0.3731E+00
 -13.990  0.3037E+00  0.3761E+00
 -13.980  0.3026E+00  0.3791E+00
 -13.970  0.3018E+00  0.3821E+00
 -13.960  0.3014E+00  0.3852E+00
 -13.950  0.3011E+00  0.3882E+00
 -13.940  0.3011E+00  0.3912E+00
 -13.930  0.3011E+00  0.3942E+00
 -13.920  0.3013E+00  0.3972E+00
 -13.910  0.3014E+00  0.4002E+00
 -13.900  0.3015E+00  0.4032E+00
 -13.890  0.3016E+00  0.4062E+00
 -13.880  0.3017E+00  0.4093E+00
 -13.870  0.3018E+00  0.4123E+00
 -13.860  0.3018E+00  0.4153E+00
 -13.850  0.3018E+00  0.4183E+00
 -13.840  0.3018E+00  0.4213E+00
 -13.830  0.3019E+00  0.4244E+00
 -13.820  0.3021E+00  0.4274E+00
 -13.810  0.3024E+00  0.4304E+00
 -13.800  0.3028E+00  0.4334E+00
 -13.790  0.3032E+00  0.4365E+00
 -13.780  0.3038E+00  0.4395E+00
 -13.770  0.3045E+00  0.4425E+00
 -13.760  0.3052E+00  0.4456E+00
 -13.750  0.3059E+00  0.4486E+00
 -13.740  0.3067E+00  0.4517E+00
 -13.730  0.3073E+00  0.4548E+00
 -13.720  0.3078E+00  0.4579E+00
 -13.710  0.3082E+00  0.4609E+00
 -13.700  0.3083E+00  0.4640E+00
 -13.690  0.3082E+00  0.4671E+00
 -13.680  0.3077E+00  0.4702E+00
 -13.670  0.3068E+00  0.4733E+00
 -13.660  0.3056E+00  0.4763E+00
 -13.650  0.3039E+00  0.4794E+00
 -13.640  0.3019E+00  0.4824E+00
 -13.630  0.2995E+00  0.4854E+00
 -13.620  0.2967E+00  0.4883E+00
 -13.610  0.2937E+00  0.4913E+00
 -13.600  0.2904E+00  0.4942E+00
 -13.590  0.2870E+00  0.4970E+00
 -13.580  0.2836E+00  0.4999E+00
 -13.570  0.2802E+00  0.5027E+00
 -13.560  0.2770E+00  0.5055E+00
 -13.550  0.2741E+00  0.5082E+00
 -13.540  0.2716E+00  0.5109E+00
 -13.530  0.2696E+00  0.5136E+00
 -13.520  0.2682E+00  0.5163E+00
 -13.510  0.2676E+00  0.5190E+00
 -13.500  0.2677E+00  0.5216E+00
 -13.490  0.2686E+00  0.5243E+00
 -13.480  0.2705E+00  0.5270E+00
 -13.470  0.2732E+00  0.5298E+00
 -13.460  0.2769E+00  0.5325E+00
 -13.450  0.2815E+00  0.5353E+00
 -13.440  0.2868E+00  0.5382E+00
 -13.430  0.2929E+00  0.5411E+00
 -13.420  0.2996E+00  0.5441E+00
 -13.410  0.3067E+00  0.5472E+00
 -13.400  0.3141E+00  0.5504E+00
 -13.390  0.3216E+00  0.5536E+00
 -13.380  0.3290E+00  0.5569E+00
 -13.370  0.3361E+00  0.5602E+00
 -13.360  0.3426E+00  0.5636E+00
 -13.350  0.3485E+00  0.5671E+00
 -13.340  0.3535E+00  0.5707E+00
 -13.330  0.3575E+00  0.5742E+00
 -13.320  0.3605E+00  0.5778E+00
 -13.310  0.3623E+00  0.5815E+00
 -13.300  0.3630E+00  0.5851E+00
 -13.290  0.3627E+00  0.5887E+00
 -13.280  0.3614E+00  0.5923E+00
 -13.270  0.3593E+00  0.5959E+00
 -13.260  0.3565E+00  0.5995E+00
 -13.250  0.3532E+00  0.6030E+00
 -13.240  0.3497E+00  0.6065E+00
 -13.230  0.3460E+00  0.6100E+00
 -13.220  0.3425E+00  0.6134E+00
 -13.210  0.3392E+00  0.6168E+00
 -13.200  0.3362E+00  0.6202E+00
 -13.190  0.3338E+00  0.6235E+00
 -13.180  0.3320E+00  0.6268E+00
 -13.170  0.3308E+00  0.6301E+00
 -13.160  0.3302E+00  0.6334E+00
 -13.150  0.3303E+00  0.6367E+00
 -13.140  0.3310E+00  0.6400E+00
 -13.130  0.3323E+00  0.6434E+00
 -13.120  0.3341E+00  0.6467E+00
 -13.110  0.3362E+00  0.6501E+00
 -13.100  0.3388E+00  0.6535E+00
 -13.090  0.3416E+00  0.6569E+00
 -13.080  0.3446E+00  0.6603E+00
 -13.070  0.3477E+00  0.6638E+00
 -13.060  0.3509E+00  0.6673E+00
 -13.050  0.3542E+00  0.6708E+00
 -13.040  0.3574E+00  0.6744E+00
 -13.030  0.3606E+00  0.6780E+00
 -13.020  0.3637E+00  0.6817E+00
 -13.010  0.3666E+00  0.6853E+00
 -13.000  0.3695E+00  0.6890E+00
 -12.990  0.3722E+00  0.6927E+00
 -12.980  0.3747E+00  0.6965E+00
 -12.970  0.3770E+00  0.7003E+00
 -12.960  0.3790E+00  0.7041E+00
 -12.950  0.3808E+00  0.7079E+00
 -12.940  0.3823E+00  0.7117E+00
 -12.930  0.3834E+00  0.7155E+00
 -12.920  0.3842E+00  0.7194E+00
 -12.910  0.3845E+00  0.7232E+00
 -12.900  0.3845E+00  0.7271E+00
 -12.890  0.3840E+00  0.7309E+00
 -12.880  0.3831E+00  0.7347E+00
 -12.870  0.3818E+00  0.7385E+00
 -12.860  0.3801E+00  0.7423E+00
 -12.850  0.3782E+00  0.7461E+00
 -12.840  0.3759E+00  0.7499E+00
 -12.830  0.3735E+00  0.7536E+00
 -12.820  0.3710E+00  0.7573E+00
 -12.810  0.3684E+00  0.7610E+00
 -12.800  0.3658E+00  0.7647E+00
 -12.790  0.3634E+00  0.7683E+00
 -12.780  0.3610E+00  0.7719E+00
 -12.770  0.3588E+00  0.7755E+00
 -12.760  0.3568E+00  0.7791E+00
 -12.750  0.3550E+00  0.7826E+00
 -12.740  0.3532E+00  0.7862E+00
 -12.730  0.3516E+00  0.7897E+00
 -12.720  0.3500E+00  0.7932E+00
 -12.710  0.3484E+00  0.7967E+00
 -12.700  0.3467E+00  0.8001E+00
 -12.690  0.3449E+00  0.8036E+00
 -12.680  0.3429E+00  0.8070E+00
 -12.670  0.3409E+00  0.8104E+00
 -12.660  0.3387E+00  0.8138E+00
 -12.650  0.3364E+00  0.8172E+00
 -12.640  0.3342E+00  0.8205E+00
 -12.630  0.3320E+00  0.8238E+00
 -12.620  0.3302E+00  0.8271E+00
 -12.610  0.3287E+00  0.8304E+00
 -12.600  0.3278E+00  0.8337E+00
 -12.590  0.3275E+00  0.8370E+00
 -12.580  0.3281E+00  0.8402E+00
 -12.570  0.3296E+00  0.8435E+00
 -12.560  0.3321E+00  0.8469E+00
 -12.550  0.3357E+00  0.8502E+00
 -12.540  0.3403E+00  0.8536E+00
 -12.530  0.3460E+00  0.8571E+00
 -12.520  0.3526E+00  0.8606E+00
 -12.510  0.3600E+00  0.8642E+00
 -12.500  0.3680E+00  0.8679E+00
 -12.490  0.3764E+00  0.8716E+00
 -12.480  0.3850E+00  0.8755E+00
 -12.470  0.3935E+00  0.8794E+00
 -12.460  0.4018E+00  0.8834E+00
 -12.450  0.4095E+00  0.8875E+00
 -12.440  0.4165E+00  0.8917E+00
 -12.430  0.4226E+00  0.8959E+00
 -12.420  0.4276E+00  0.9002E+00
 -12.410  0.4315E+00  0.9045E+00
 -12.400  0.4340E+00  0.9089E+00
 -12.390  0.4352E+00  0.9132E+00
 -12.380  0.4351E+00  0.9176E+00
 -12.370  0.4337E+00  0.9219E+00
 -12.360  0.4311E+00  0.9262E+00
 -12.350  0.4272E+00  0.9305E+00
 -12.340  0.4224E+00  0.9347E+00
 -12.330  0.4166E+00  0.9389E+00
 -12.320  0.4101E+00  0.9430E+00
 -12.310  0.4030E+00  0.9470E+00
 -12.300  0.3954E+00  0.9510E+00
 -12.290  0.3875E+00  0.9548E+00
 -12.280  0.3796E+00  0.9586E+00
 -12.270  0.3716E+00  0.9624E+00
 -12.260  0.3639E+00  0.9660E+00
 -12.250  0.3566E+00  0.9696E+00
 -12.240  0.3497E+00  0.9731E+00
 -12.230  0.3435E+00  0.9765E+00
 -12.220  0.3380E+00  0.9799E+00
 -12.210  0.3332E+00  0.9832E+00
 -12.200  0.3293E+00  0.9865E+00
 -12.190  0.3262E+00  0.9898E+00
 -12.180  0.3241E+00  0.9930E+00
 -12.170  0.3229E+00  0.9962E+00
 -12.160  0.3225E+00  0.9994E+00
 -12.150  0.3230E+00  0.1003E+01
 -12.140  0.3242E+00  0.1006E+01
 -12.130  0.3262E+00  0.1009E+01
 -12.120  0.3288E+00  0.1012E+01
 -12.110  0.3320E+00  0.1016E+01
 -12.100  0.3356E+00  0.1019E+01
 -12.090  0.3395E+00  0.1023E+01
 -12.080  0.3438E+00  0.1026E+01
 -12.070  0.3482E+00  0.1029E+01
 -12.060  0.3528E+00  0.1033E+01
 -12.050  0.3574E+00  0.1037E+01
 -12.040  0.3621E+00  0.1040E+01
 -12.030  0.3667E+00  0.1044E+01
 -12.020  0.3712E+00  0.1048E+01
 -12.010  0.3757E+00  0.1051E+01
 -12.000  0.3801E+00  0.1055E+01
 -11.990  0.3844E+00  0.1059E+01
 -11.980  0.3886E+00  0.1063E+01
 -11.970  0.3927E+00  0.1067E+01
 -11.960  0.3967E+00  0.1071E+01
 -11.950  0.4006E+00  0.1075E+01
 -11.940  0.4044E+00  0.1079E+01
 -11.930  0.4081E+00  0.1083E+01
 -11.920  0.4116E+00  0.1087E+01
 -11.910  0.4148E+00  0.1091E+01
 -11.900  0.4178E+00  0.1095E+01
 -11.890  0.4204E+00  0.1100E+01
 -11.880  0.4226E+00  0.1104E+01
 -11.870  0.4242E+00  0.1108E+01
 -11.860  0.4253E+00  0.1112E+01
 -11.850  0.4257E+00  0.1117E+01
 -11.840  0.4253E+00  0.1121E+01
 -11.830  0.4242E+00  0.1125E+01
 -11.820  0.4222E+00  0.1129E+01
 -11.810  0.4194E+00  0.1133E+01
 -11.800  0.4158E+00  0.1138E+01
 -11.790  0.4115E+00  0.1142E+01
 -11.780  0.4066E+00  0.1146E+01
 -11.770  0.4011E+00  0.1150E+01
 -11.760  0.3953E+00  0.1154E+01
 -11.750  0.3894E+00  0.1158E+01
 -11.740  0.3835E+00  0.1161E+01
 -11.730  0.3779E+00  0.1165E+01
 -11.720  0.3728E+00  0.1169E+01
 -11.710  0.3683E+00  0.1173E+01
 -11.700  0.3648E+00  0.1176E+01
 -11.690  0.3622E+00  0.1180E+01
 -11.680  0.3608E+00  0.1184E+01
 -11.670  0.3607E+00  0.1187E+01
 -11.660  0.3617E+00  0.1191E+01
 -11.650  0.3639E+00  0.1194E+01
 -11.640  0.3672E+00  0.1198E+01
 -11.630  0.3713E+00  0.1202E+01
 -11.620  0.3762E+00  0.1206E+01
 -11.610  0.3816E+00  0.1209E+01
 -11.600  0.3872E+00  0.1213E+01
 -11.590  0.3928E+00  0.1217E+01
 -11.580  0.3981E+00  0.1221E+01
 -11.570  0.4028E+00  0.1225E+01
 -11.560  0.4068E+00  0.1229E+01
 -11.550  0.4098E+00  0.1233E+01
 -11.540  0.4118E+00  0.1237E+01
 -11.530  0.4126E+00  0.1242E+01
 -11.520  0.4123E+00  0.1246E+01
 -11.510  0.4108E+00  0.1250E+01
 -11.500  0.4083E+00  0.1254E+01
 -11.490  0.4049E+00  0.1258E+01
 -11.480  0.4007E+00  0.1262E+01
 -11.470  0.3960E+00  0.1266E+01
 -11.460  0.3909E+00  0.1270E+01
 -11.450  0.3857E+00  0.1274E+01
 -11.440  0.3804E+00  0.1277E+01
 -11.430  0.3754E+00  0.1281E+01
 -11.420  0.3708E+00  0.1285E+01
 -11.410  0.3667E+00  0.1289E+01
 -11.400  0.3632E+00  0.1292E+01
 -11.390  0.3604E+00  0.1296E+01
 -11.380  0.3584E+00  0.1299E+01
 -11.370  0.3573E+00  0.1303E+01
 -11.360  0.3569E+00  0.1307E+01
 -11.350  0.3575E+00  0.1310E+01
 -11.340  0.3589E+00  0.1314E+01
 -11.330  0.3613E+00  0.1317E+01
 -11.320  0.3645E+00  0.1321E+01
 -11.310  0.3687E+00  0.1325E+01
 -11.300  0.3737E+00  0.1328E+01
 -11.290  0.3796E+00  0.1332E+01
 -11.280  0.3864E+00  0.1336E+01
 -11.270  0.3939E+00  0.1340E+01
 -11.260  0.4022E+00  0.1344E+01
 -11.250  0.4110E+00  0.1348E+01
 -11.240  0.4202E+00  0.1352E+01
 -11.230  0.4295E+00  0.1357E+01
 -11.220  0.4389E+00  0.1361E+01
 -11.210  0.4479E+00  0.1365E+01
 -11.200  0.4562E+00  0.1370E+01
 -11.190  0.4637E+00  0.1375E+01
 -11.180  0.4700E+00  0.1379E+01
 -11.170  0.4749E+00  0.1384E+01
 -11.160  0.4781E+00  0.1389E+01
 -11.150  0.4795E+00  0.1394E+01
 -11.140  0.4791E+00  0.1399E+01
 -11.130  0.4767E+00  0.1403E+01
 -11.120  0.4724E+00  0.1408E+01
 -11.110  0.4665E+00  0.1413E+01
 -11.100  0.4591E+00  0.1417E+01
 -11.090  0.4506E+00  0.1422E+01
 -11.080  0.4412E+00  0.1426E+01
 -11.070  0.4313E+00  0.1430E+01
 -11.060  0.4213E+00  0.1435E+01
 -11.050  0.4116E+00  0.1439E+01
 -11.040  0.4025E+00  0.1443E+01
 -11.030  0.3943E+00  0.1447E+01
 -11.020  0.3873E+00  0.1451E+01
 -11.010  0.3815E+00  0.1454E+01
 -11.000  0.3771E+00  0.1458E+01
 -10.990  0.3740E+00  0.1462E+01
 -10.980  0.3723E+00  0.1466E+01
 -10.970  0.3717E+00  0.1469E+01
 -10.960  0.3721E+00  0.1473E+01
 -10.950  0.3733E+00  0.1477E+01
 -10.940  0.3752E+00  0.1481E+01
 -10.930  0.3774E+00  0.1484E+01
 -10.920  0.3798E+00  0.1488E+01
 -10.910  0.3822E+00  0.1492E+01
 -10.900  0.3846E+00  0.1496E+01
 -10.890  0.3868E+00  0.1500E+01
 -10.880  0.3889E+00  0.1504E+01
 -10.870  0.3909E+00  0.1508E+01
 -10.860  0.3928E+00  0.1511E+01
 -10.850  0.3948E+00  0.1515E+01
 -10.840  0.3970E+00  0.1519E+01
 -10.830  0.3994E+00  0.1523E+01
 -10.820  0.4023E+00  0.1527E+01
 -10.810  0.4057E+00  0.1531E+01
 -10.800  0.4096E+00  0.1536E+01
 -10.790  0.4142E+00  0.1540E+01
 -10.780  0.4193E+00  0.1544E+01
 -10.770  0.4249E+00  0.1548E+01
 -10.760  0.4309E+00  0.1552E+01
 -10.750  0.4371E+00  0.1557E+01
 -10.740  0.4434E+00  0.1561E+01
 -10.730  0.4495E+00  0.1566E+01
 -10.720  0.4554E+00  0.1570E+01
 -10.710  0.4606E+00  0.1575E+01
 -10.700  0.4652E+00  0.1580E+01
 -10.690  0.4689E+00  0.1584E+01
 -10.680  0.4717E+00  0.1589E+01
 -10.670  0.4734E+00  0.1594E+01
 -10.660  0.4742E+00  0.1598E+01
 -10.650  0.4740E+00  0.1603E+01
 -10.640  0.4730E+00  0.1608E+01
 -10.630  0.4713E+00  0.1613E+01
 -10.620  0.4691E+00  0.1617E+01
 -10.610  0.4668E+00  0.1622E+01
 -10.600  0.4644E+00  0.1627E+01
 -10.590  0.4623E+00  0.1631E+01
 -10.580  0.4607E+00  0.1636E+01
 -10.570  0.4598E+00  0.1640E+01
 -10.560  0.4598E+00  0.1645E+01
 -10.550  0.4609E+00  0.1650E+01
 -10.540  0.4631E+00  0.1654E+01
 -10.530  0.4665E+00  0.1659E+01
 -10.520  0.4712E+00  0.1664E+01
 -10.510  0.4771E+00  0.1668E+01
 -10.500  0.4841E+00  0.1673E+01
 -10.490  0.4922E+00  0.1678E+01
 -10.480  0.5013E+00  0.1683E+01
 -10.470  0.5112E+00  0.1688E+01
 -10.460  0.5218E+00  0.1694E+01
 -10.450  0.5330E+00  0.1699E+01
 -10.440  0.5446E+00  0.1704E+01
 -10.430  0.5564E+00  0.1710E+01
 -10.420  0.5685E+00  0.1716E+01
 -10.410  0.5806E+00  0.1721E+01
 -10.400  0.5927E+00  0.1727E+01
 -10.390  0.6045E+00  0.1733E+01
 -10.380  0.6161E+00  0.1740E+01
 -10.370  0.6274E+00  0.1746E+01
 -10.360  0.6381E+00  0.1752E+01
 -10.350  0.6482E+00  0.1759E+01
 -10.340  0.6577E+00  0.1765E+01
 -10.330  0.6664E+00  0.1772E+01
 -10.320  0.6743E+00  0.1779E+01
 -10.310  0.6813E+00  0.1785E+01
 -10.300  0.6875E+00  0.1792E+01
 -10.290  0.6927E+00  0.1799E+01
 -10.280  0.6970E+00  0.1806E+01
 -10.270  0.7005E+00  0.1813E+01
 -10.260  0.7034E+00  0.1820E+01
 -10.250  0.7055E+00  0.1827E+01
 -10.240  0.7072E+00  0.1834E+01
 -10.230  0.7086E+00  0.1841E+01
 -10.220  0.7098E+00  0.1849E+01
 -10.210  0.7109E+00  0.1856E+01
 -10.200  0.7121E+00  0.1863E+01
 -10.190  0.7136E+00  0.1870E+01
 -10.180  0.7152E+00  0.1877E+01
 -10.170  0.7172E+00  0.1884E+01
 -10.160  0.7196E+00  0.1891E+01
 -10.150  0.7222E+00  0.1899E+01
 -10.140  0.7251E+00  0.1906E+01
 -10.130  0.7282E+00  0.1913E+01
 -10.120  0.7313E+00  0.1921E+01
 -10.110  0.7344E+00  0.1928E+01
 -10.100  0.7374E+00  0.1935E+01
 -10.090  0.7400E+00  0.1943E+01
 -10.080  0.7423E+00  0.1950E+01
 -10.070  0.7442E+00  0.1957E+01
 -10.060  0.7456E+00  0.1965E+01
 -10.050  0.7466E+00  0.1972E+01
 -10.040  0.7471E+00  0.1980E+01
 -10.030  0.7472E+00  0.1987E+01
 -10.020  0.7470E+00  0.1995E+01
 -10.010  0.7467E+00  0.2002E+01
 -10.000  0.7464E+00  0.2010E+01
  -9.990  0.7462E+00  0.2017E+01
  -9.980  0.7462E+00  0.2025E+01
  -9.970  0.7467E+00  0.2032E+01
  -9.960  0.7476E+00  0.2040E+01
  -9.950  0.7490E+00  0.2047E+01
  -9.940  0.7510E+00  0.2055E+01
  -9.930  0.7536E+00  0.2062E+01
  -9.920  0.7568E+00  0.2070E+01
  -9.910  0.7603E+00  0.2077E+01
  -9.900  0.7641E+00  0.2085E+01
  -9.890  0.7681E+00  0.2093E+01
  -9.880  0.7720E+00  0.2100E+01
  -9.870  0.7758E+00  0.2108E+01
  -9.860  0.7791E+00  0.2116E+01
  -9.850  0.7819E+00  0.2124E+01
  -9.840  0.7840E+00  0.2132E+01
  -9.830  0.7854E+00  0.2139E+01
  -9.820  0.7859E+00  0.2147E+01
  -9.810  0.7857E+00  0.2155E+01
  -9.800  0.7846E+00  0.2163E+01
  -9.790  0.7829E+00  0.2171E+01
  -9.780  0.7806E+00  0.2179E+01
  -9.770  0.7779E+00  0.2186E+01
  -9.760  0.7750E+00  0.2194E+01
  -9.750  0.7721E+00  0.2202E+01
  -9.740  0.7694E+00  0.2210E+01
  -9.730  0.7670E+00  0.2217E+01
  -9.720  0.7651E+00  0.2225E+01
  -9.710  0.7638E+00  0.2233E+01
  -9.700  0.7632E+00  0.2240E+01
  -9.690  0.7634E+00  0.2248E+01
  -9.680  0.7643E+00  0.2255E+01
  -9.670  0.7660E+00  0.2263E+01
  -9.660  0.7683E+00  0.2271E+01
  -9.650  0.7713E+00  0.2279E+01
  -9.640  0.7748E+00  0.2286E+01
  -9.630  0.7788E+00  0.2294E+01
  -9.620  0.7833E+00  0.2302E+01
  -9.610  0.7880E+00  0.2310E+01
  -9.600  0.7931E+00  0.2318E+01
  -9.590  0.7985E+00  0.2326E+01
  -9.580  0.8040E+00  0.2334E+01
  -9.570  0.8099E+00  0.2342E+01
  -9.560  0.8160E+00  0.2350E+01
  -9.550  0.8223E+00  0.2358E+01
  -9.540  0.8289E+00  0.2366E+01
  -9.530  0.8358E+00  0.2375E+01
  -9.520  0.8429E+00  0.2383E+01
  -9.510  0.8503E+00  0.2392E+01
  -9.500  0.8577E+00  0.2400E+01
  -9.490  0.8652E+00  0.2409E+01
  -9.480  0.8726E+00  0.2418E+01
  -9.470  0.8798E+00  0.2427E+01
  -9.460  0.8867E+00  0.2435E+01
  -9.450  0.8931E+00  0.2444E+01
  -9.440  0.8989E+00  0.2453E+01
  -9.430  0.9040E+00  0.2462E+01
  -9.420  0.9083E+00  0.2471E+01
  -9.410  0.9118E+00  0.2481E+01
  -9.400  0.9144E+00  0.2490E+01
  -9.390  0.9162E+00  0.2499E+01
  -9.380  0.9173E+00  0.2508E+01
  -9.370  0.9179E+00  0.2517E+01
  -9.360  0.9180E+00  0.2526E+01
  -9.350  0.9179E+00  0.2536E+01
  -9.340  0.9178E+00  0.2545E+01
  -9.330  0.9180E+00  0.2554E+01
  -9.320  0.9186E+00  0.2563E+01
  -9.310  0.9200E+00  0.2572E+01
  -9.300  0.9222E+00  0.2582E+01
  -9.290  0.9255E+00  0.2591E+01
  -9.280  0.9299E+00  0.2600E+01
  -9.270  0.9356E+00  0.2609E+01
  -9.260  0.9426E+00  0.2619E+01
  -9.250  0.9508E+00  0.2628E+01
  -9.240  0.9601E+00  0.2638E+01
  -9.230  0.9705E+00  0.2648E+01
  -9.220  0.9817E+00  0.2658E+01
  -9.210  0.9937E+00  0.2667E+01
  -9.200  0.1006E+01  0.2678E+01
  -9.190  0.1019E+01  0.2688E+01
  -9.180  0.1031E+01  0.2698E+01
  -9.170  0.1044E+01  0.2708E+01
  -9.160  0.1055E+01  0.2719E+01
  -9.150  0.1066E+01  0.2730E+01
  -9.140  0.1076E+01  0.2740E+01
  -9.130  0.1085E+01  0.2751E+01
  -9.120  0.1092E+01  0.2762E+01
  -9.110  0.1097E+01  0.2773E+01
  -9.100  0.1102E+01  0.2784E+01
  -9.090  0.1104E+01  0.2795E+01
  -9.080  0.1105E+01  0.2806E+01
  -9.070  0.1104E+01  0.2817E+01
  -9.060  0.1101E+01  0.2828E+01
  -9.050  0.1097E+01  0.2839E+01
  -9.040  0.1092E+01  0.2850E+01
  -9.030  0.1086E+01  0.2861E+01
  -9.020  0.1078E+01  0.2872E+01
  -9.010  0.1070E+01  0.2883E+01
  -9.000  0.1060E+01  0.2893E+01
  -8.990  0.1051E+01  0.2904E+01
  -8.980  0.1041E+01  0.2914E+01
  -8.970  0.1030E+01  0.2924E+01
  -8.960  0.1020E+01  0.2935E+01
  -8.950  0.1009E+01  0.2945E+01
  -8.940  0.9990E+00  0.2955E+01
  -8.930  0.9887E+00  0.2965E+01
  -8.920  0.9787E+00  0.2974E+01
  -8.910  0.9689E+00  0.2984E+01
  -8.900  0.9594E+00  0.2994E+01
  -8.890  0.9502E+00  0.3003E+01
  -8.880  0.9413E+00  0.3012E+01
  -8.870  0.9328E+00  0.3022E+01
  -8.860  0.9247E+00  0.3031E+01
  -8.850  0.9169E+00  0.3040E+01
  -8.840  0.9095E+00  0.3049E+01
  -8.830  0.9024E+00  0.3058E+01
  -8.820  0.8957E+00  0.3067E+01
  -8.810  0.8894E+00  0.3076E+01
  -8.800  0.8833E+00  0.3085E+01
  -8.790  0.8776E+00  0.3094E+01
  -8.780  0.8721E+00  0.3103E+01
  -8.770  0.8668E+00  0.3111E+01
  -8.760  0.8616E+00  0.3120E+01
  -8.750  0.8567E+00  0.3128E+01
  -8.740  0.8519E+00  0.3137E+01
  -8.730  0.8471E+00  0.3145E+01
  -8.720  0.8426E+00  0.3154E+01
  -8.710  0.8381E+00  0.3162E+01
  -8.700  0.8338E+00  0.3171E+01
  -8.690  0.8296E+00  0.3179E+01
  -8.680  0.8257E+00  0.3187E+01
  -8.670  0.8220E+00  0.3195E+01
  -8.660  0.8185E+00  0.3203E+01
  -8.650  0.8153E+00  0.3212E+01
  -8.640  0.8123E+00  0.3220E+01
  -8.630  0.8094E+00  0.3228E+01
  -8.620  0.8067E+00  0.3236E+01
  -8.610  0.8041E+00  0.3244E+01
  -8.600  0.8013E+00  0.3252E+01
  -8.590  0.7984E+00  0.3260E+01
  -8.580  0.7953E+00  0.3268E+01
  -8.570  0.7917E+00  0.3276E+01
  -8.560  0.7876E+00  0.3284E+01
  -8.550  0.7829E+00  0.3292E+01
  -8.540  0.7775E+00  0.3299E+01
  -8.530  0.7715E+00  0.3307E+01
  -8.520  0.7649E+00  0.3315E+01
  -8.510  0.7578E+00  0.3322E+01
  -8.500  0.7503E+00  0.3330E+01
  -8.490  0.7425E+00  0.3337E+01
  -8.480  0.7347E+00  0.3345E+01
  -8.470  0.7272E+00  0.3352E+01
  -8.460  0.7201E+00  0.3359E+01
  -8.450  0.7137E+00  0.3366E+01
  -8.440  0.7083E+00  0.3373E+01
  -8.430  0.7041E+00  0.3380E+01
  -8.420  0.7013E+00  0.3387E+01
  -8.410  0.7000E+00  0.3394E+01
  -8.400  0.7003E+00  0.3401E+01
  -8.390  0.7023E+00  0.3408E+01
  -8.380  0.7058E+00  0.3415E+01
  -8.370  0.7108E+00  0.3422E+01
  -8.360  0.7170E+00  0.3430E+01
  -8.350  0.7243E+00  0.3437E+01
  -8.340  0.7323E+00  0.3444E+01
  -8.330  0.7406E+00  0.3452E+01
  -8.320  0.7489E+00  0.3459E+01
  -8.310  0.7569E+00  0.3467E+01
  -8.300  0.7641E+00  0.3474E+01
  -8.290  0.7702E+00  0.3482E+01
  -8.280  0.7750E+00  0.3490E+01
  -8.270  0.7782E+00  0.3498E+01
  -8.260  0.7797E+00  0.3505E+01
  -8.250  0.7794E+00  0.3513E+01
  -8.240  0.7772E+00  0.3521E+01
  -8.230  0.7733E+00  0.3529E+01
  -8.220  0.7677E+00  0.3536E+01
  -8.210  0.7608E+00  0.3544E+01
  -8.200  0.7526E+00  0.3551E+01
  -8.190  0.7435E+00  0.3559E+01
  -8.180  0.7337E+00  0.3566E+01
  -8.170  0.7236E+00  0.3573E+01
  -8.160  0.7135E+00  0.3581E+01
  -8.150  0.7034E+00  0.3588E+01
  -8.140  0.6938E+00  0.3595E+01
  -8.130  0.6847E+00  0.3601E+01
  -8.120  0.6764E+00  0.3608E+01
  -8.110  0.6688E+00  0.3615E+01
  -8.100  0.6622E+00  0.3621E+01
  -8.090  0.6564E+00  0.3628E+01
  -8.080  0.6515E+00  0.3635E+01
  -8.070  0.6474E+00  0.3641E+01
  -8.060  0.6441E+00  0.3647E+01
  -8.050  0.6416E+00  0.3654E+01
  -8.040  0.6396E+00  0.3660E+01
  -8.030  0.6382E+00  0.3667E+01
  -8.020  0.6373E+00  0.3673E+01
  -8.010  0.6367E+00  0.3679E+01
  -8.000  0.6364E+00  0.3686E+01
  -7.990  0.6363E+00  0.3692E+01
  -7.980  0.6363E+00  0.3698E+01
  -7.970  0.6365E+00  0.3705E+01
  -7.960  0.6368E+00  0.3711E+01
  -7.950  0.6372E+00  0.3718E+01
  -7.940  0.6377E+00  0.3724E+01
  -7.930  0.6384E+00  0.3730E+01
  -7.920  0.6392E+00  0.3737E+01
  -7.910  0.6403E+00  0.3743E+01
  -7.900  0.6416E+00  0.3750E+01
  -7.890  0.6432E+00  0.3756E+01
  -7.880  0.6452E+00  0.3762E+01
  -7.870  0.6475E+00  0.3769E+01
  -7.860  0.6501E+00  0.3775E+01
  -7.850  0.6531E+00  0.3782E+01
  -7.840  0.6563E+00  0.3789E+01
  -7.830  0.6597E+00  0.3795E+01
  -7.820  0.6633E+00  0.3802E+01
  -7.810  0.6669E+00  0.3808E+01
  -7.800  0.6703E+00  0.3815E+01
  -7.790  0.6736E+00  0.3822E+01
  -7.780  0.6766E+00  0.3829E+01
  -7.770  0.6792E+00  0.3835E+01
  -7.760  0.6813E+00  0.3842E+01
  -7.750  0.6829E+00  0.3849E+01
  -7.740  0.6839E+00  0.3856E+01
  -7.730  0.6842E+00  0.3863E+01
  -7.720  0.6838E+00  0.3870E+01
  -7.710  0.6828E+00  0.3876E+01
  -7.700  0.6810E+00  0.3883E+01
  -7.690  0.6787E+00  0.3890E+01
  -7.680  0.6756E+00  0.3897E+01
  -7.670  0.6719E+00  0.3903E+01
  -7.660  0.6676E+00  0.3910E+01
  -7.650  0.6627E+00  0.3917E+01
  -7.640  0.6572E+00  0.3923E+01
  -7.630  0.6512E+00  0.3930E+01
  -7.620  0.6446E+00  0.3936E+01
  -7.610  0.6376E+00  0.3943E+01
  -7.600  0.6302E+00  0.3949E+01
  -7.590  0.6225E+00  0.3955E+01
  -7.580  0.6146E+00  0.3961E+01
  -7.570  0.6067E+00  0.3967E+01
  -7.560  0.5988E+00  0.3973E+01
  -7.550  0.5912E+00  0.3979E+01
  -7.540  0.5841E+00  0.3985E+01
  -7.530  0.5775E+00  0.3991E+01
  -7.520  0.5717E+00  0.3997E+01
  -7.510  0.5667E+00  0.4002E+01
  -7.500  0.5629E+00  0.4008E+01
  -7.490  0.5602E+00  0.4014E+01
  -7.480  0.5587E+00  0.4019E+01
  -7.470  0.5585E+00  0.4025E+01
  -7.460  0.5596E+00  0.4030E+01
  -7.450  0.5619E+00  0.4036E+01
  -7.440  0.5655E+00  0.4042E+01
  -7.430  0.5701E+00  0.4047E+01
  -7.420  0.5758E+00  0.4053E+01
  -7.410  0.5822E+00  0.4059E+01
  -7.400  0.5893E+00  0.4065E+01
  -7.390  0.5968E+00  0.4071E+01
  -7.380  0.6046E+00  0.4077E+01
  -7.370  0.6124E+00  0.4083E+01
  -7.360  0.6200E+00  0.4089E+01
  -7.350  0.6271E+00  0.4095E+01
  -7.340  0.6337E+00  0.4102E+01
  -7.330  0.6396E+00  0.4108E+01
  -7.320  0.6445E+00  0.4115E+01
  -7.310  0.6484E+00  0.4121E+01
  -7.300  0.6511E+00  0.4128E+01
  -7.290  0.6526E+00  0.4134E+01
  -7.280  0.6529E+00  0.4141E+01
  -7.270  0.6520E+00  0.4147E+01
  -7.260  0.6499E+00  0.4154E+01
  -7.250  0.6467E+00  0.4160E+01
  -7.240  0.6425E+00  0.4167E+01
  -7.230  0.6374E+00  0.4173E+01
  -7.220  0.6316E+00  0.4179E+01
  -7.210  0.6252E+00  0.4185E+01
  -7.200  0.6185E+00  0.4192E+01
  -7.190  0.6116E+00  0.4198E+01
  -7.180  0.6047E+00  0.4204E+01
  -7.170  0.5980E+00  0.4210E+01
  -7.160  0.5915E+00  0.4216E+01
  -7.150  0.5853E+00  0.4222E+01
  -7.140  0.5796E+00  0.4227E+01
  -7.130  0.5744E+00  0.4233E+01
  -7.120  0.5696E+00  0.4239E+01
  -7.110  0.5652E+00  0.4244E+01
  -7.100  0.5612E+00  0.4250E+01
  -7.090  0.5576E+00  0.4256E+01
  -7.080  0.5543E+00  0.4261E+01
  -7.070  0.5512E+00  0.4267E+01
  -7.060  0.5483E+00  0.4272E+01
  -7.050  0.5457E+00  0.4278E+01
  -7.040  0.5434E+00  0.4283E+01
  -7.030  0.5414E+00  0.4288E+01
  -7.020  0.5398E+00  0.4294E+01
  -7.010  0.5387E+00  0.4299E+01
  -7.000  0.5383E+00  0.4305E+01
  -6.990  0.5387E+00  0.4310E+01
  -6.980  0.5400E+00  0.4315E+01
  -6.970  0.5422E+00  0.4321E+01
  -6.960  0.5455E+00  0.4326E+01
  -6.950  0.5498E+00  0.4332E+01
  -6.940  0.5551E+00  0.4337E+01
  -6.930  0.5613E+00  0.4343E+01
  -6.920  0.5682E+00  0.4349E+01
  -6.910  0.5756E+00  0.4354E+01
  -6.900  0.5832E+00  0.4360E+01
  -6.890  0.5907E+00  0.4366E+01
  -6.880  0.5979E+00  0.4372E+01
  -6.870  0.6044E+00  0.4378E+01
  -6.860  0.6100E+00  0.4384E+01
  -6.850  0.6144E+00  0.4390E+01
  -6.840  0.6174E+00  0.4397E+01
  -6.830  0.6189E+00  0.4403E+01
  -6.820  0.6189E+00  0.4409E+01
  -6.810  0.6172E+00  0.4415E+01
  -6.800  0.6141E+00  0.4421E+01
  -6.790  0.6096E+00  0.4427E+01
  -6.780  0.6040E+00  0.4433E+01
  -6.770  0.5975E+00  0.4439E+01
  -6.760  0.5903E+00  0.4445E+01
  -6.750  0.5829E+00  0.4451E+01
  -6.740  0.5754E+00  0.4457E+01
  -6.730  0.5682E+00  0.4463E+01
  -6.720  0.5615E+00  0.4468E+01
  -6.710  0.5555E+00  0.4474E+01
  -6.700  0.5504E+00  0.4479E+01
  -6.690  0.5463E+00  0.4485E+01
  -6.680  0.5433E+00  0.4490E+01
  -6.670  0.5414E+00  0.4496E+01
  -6.660  0.5405E+00  0.4501E+01
  -6.650  0.5407E+00  0.4506E+01
  -6.640  0.5417E+00  0.4512E+01
  -6.630  0.5435E+00  0.4517E+01
  -6.620  0.5458E+00  0.4523E+01
  -6.610  0.5484E+00  0.4528E+01
  -6.600  0.5513E+00  0.4534E+01
  -6.590  0.5541E+00  0.4539E+01
  -6.580  0.5567E+00  0.4545E+01
  -6.570  0.5588E+00  0.4550E+01
  -6.560  0.5605E+00  0.4556E+01
  -6.550  0.5614E+00  0.4562E+01
  -6.540  0.5616E+00  0.4567E+01
  -6.530  0.5610E+00  0.4573E+01
  -6.520  0.5595E+00  0.4578E+01
  -6.510  0.5573E+00  0.4584E+01
  -6.500  0.5544E+00  0.4590E+01
  -6.490  0.5509E+00  0.4595E+01
  -6.480  0.5469E+00  0.4600E+01
  -6.470  0.5427E+00  0.4606E+01
  -6.460  0.5384E+00  0.4611E+01
  -6.450  0.5342E+00  0.4617E+01
  -6.440  0.5304E+00  0.4622E+01
  -6.430  0.5271E+00  0.4627E+01
  -6.420  0.5246E+00  0.4632E+01
  -6.410  0.5229E+00  0.4638E+01
  -6.400  0.5222E+00  0.4643E+01
  -6.390  0.5225E+00  0.4648E+01
  -6.380  0.5239E+00  0.4653E+01
  -6.370  0.5263E+00  0.4659E+01
  -6.360  0.5296E+00  0.4664E+01
  -6.350  0.5338E+00  0.4669E+01
  -6.340  0.5386E+00  0.4675E+01
  -6.330  0.5440E+00  0.4680E+01
  -6.320  0.5497E+00  0.4686E+01
  -6.310  0.5556E+00  0.4691E+01
  -6.300  0.5614E+00  0.4697E+01
  -6.290  0.5670E+00  0.4702E+01
  -6.280  0.5722E+00  0.4708E+01
  -6.270  0.5768E+00  0.4714E+01
  -6.260  0.5809E+00  0.4720E+01
  -6.250  0.5841E+00  0.4726E+01
  -6.240  0.5866E+00  0.4731E+01
  -6.230  0.5882E+00  0.4737E+01
  -6.220  0.5889E+00  0.4743E+01
  -6.210  0.5887E+00  0.4749E+01
  -6.200  0.5878E+00  0.4755E+01
  -6.190  0.5860E+00  0.4761E+01
  -6.180  0.5835E+00  0.4767E+01
  -6.170  0.5804E+00  0.4772E+01
  -6.160  0.5768E+00  0.4778E+01
  -6.150  0.5728E+00  0.4784E+01
  -6.140  0.5685E+00  0.4790E+01
  -6.130  0.5641E+00  0.4795E+01
  -6.120  0.5596E+00  0.4801E+01
  -6.110  0.5552E+00  0.4806E+01
  -6.100  0.5509E+00  0.4812E+01
  -6.090  0.5469E+00  0.4817E+01
  -6.080  0.5433E+00  0.4823E+01
  -6.070  0.5400E+00  0.4828E+01
  -6.060  0.5372E+00  0.4834E+01
  -6.050  0.5347E+00  0.4839E+01
  -6.040  0.5326E+00  0.4844E+01
  -6.030  0.5308E+00  0.4850E+01
  -6.020  0.5293E+00  0.4855E+01
  -6.010  0.5279E+00  0.4860E+01
  -6.000  0.5266E+00  0.4865E+01
  -5.990  0.5254E+00  0.4871E+01
  -5.980  0.5242E+00  0.4876E+01
  -5.970  0.5229E+00  0.4881E+01
  -5.960  0.5216E+00  0.4886E+01
  -5.950  0.5201E+00  0.4892E+01
  -5.940  0.5187E+00  0.4897E+01
  -5.930  0.5172E+00  0.4902E+01
  -5.920  0.5159E+00  0.4907E+01
  -5.910  0.5147E+00  0.4912E+01
  -5.900  0.5138E+00  0.4917E+01
  -5.890  0.5133E+00  0.4923E+01
  -5.880  0.5134E+00  0.4928E+01
  -5.870  0.5140E+00  0.4933E+01
  -5.860  0.5153E+00  0.4938E+01
  -5.850  0.5174E+00  0.4943E+01
  -5.840  0.5202E+00  0.4948E+01
  -5.830  0.5238E+00  0.4954E+01
  -5.820  0.5281E+00  0.4959E+01
  -5.810  0.5329E+00  0.4964E+01
  -5.800  0.5383E+00  0.4970E+01
  -5.790  0.5439E+00  0.4975E+01
  -5.780  0.5495E+00  0.4981E+01
  -5.770  0.5551E+00  0.4986E+01
  -5.760  0.5603E+00  0.4992E+01
  -5.750  0.5648E+00  0.4997E+01
  -5.740  0.5685E+00  0.5003E+01
  -5.730  0.5712E+00  0.5009E+01
  -5.720  0.5726E+00  0.5014E+01
  -5.710  0.5726E+00  0.5020E+01
  -5.700  0.5711E+00  0.5026E+01
  -5.690  0.5680E+00  0.5032E+01
  -5.680  0.5633E+00  0.5037E+01
  -5.670  0.5570E+00  0.5043E+01
  -5.660  0.5492E+00  0.5048E+01
  -5.650  0.5401E+00  0.5054E+01
  -5.640  0.5298E+00  0.5059E+01
  -5.630  0.5185E+00  0.5064E+01
  -5.620  0.5065E+00  0.5069E+01
  -5.610  0.4939E+00  0.5074E+01
  -5.600  0.4811E+00  0.5079E+01
  -5.590  0.4683E+00  0.5084E+01
  -5.580  0.4558E+00  0.5088E+01
  -5.570  0.4438E+00  0.5093E+01
  -5.560  0.4325E+00  0.5097E+01
  -5.550  0.4220E+00  0.5101E+01
  -5.540  0.4125E+00  0.5105E+01
  -5.530  0.4041E+00  0.5109E+01
  -5.520  0.3967E+00  0.5113E+01
  -5.510  0.3905E+00  0.5117E+01
  -5.500  0.3854E+00  0.5121E+01
  -5.490  0.3812E+00  0.5125E+01
  -5.480  0.3779E+00  0.5129E+01
  -5.470  0.3754E+00  0.5132E+01
  -5.460  0.3735E+00  0.5136E+01
  -5.450  0.3720E+00  0.5140E+01
  -5.440  0.3709E+00  0.5144E+01
  -5.430  0.3701E+00  0.5147E+01
  -5.420  0.3693E+00  0.5151E+01
  -5.410  0.3686E+00  0.5155E+01
  -5.400  0.3678E+00  0.5158E+01
  -5.390  0.3669E+00  0.5162E+01
  -5.380  0.3660E+00  0.5166E+01
  -5.370  0.3650E+00  0.5169E+01
  -5.360  0.3641E+00  0.5173E+01
  -5.350  0.3632E+00  0.5177E+01
  -5.340  0.3626E+00  0.5180E+01
  -5.330  0.3622E+00  0.5184E+01
  -5.320  0.3623E+00  0.5187E+01
  -5.310  0.3630E+00  0.5191E+01
  -5.300  0.3644E+00  0.5195E+01
  -5.290  0.3667E+00  0.5198E+01
  -5.280  0.3700E+00  0.5202E+01
  -5.270  0.3745E+00  0.5206E+01
  -5.260  0.3801E+00  0.5210E+01
  -5.250  0.3871E+00  0.5214E+01
  -5.240  0.3954E+00  0.5217E+01
  -5.230  0.4051E+00  0.5222E+01
  -5.220  0.4161E+00  0.5226E+01
  -5.210  0.4283E+00  0.5230E+01
  -5.200  0.4416E+00  0.5234E+01
  -5.190  0.4560E+00  0.5239E+01
  -5.180  0.4710E+00  0.5244E+01
  -5.170  0.4866E+00  0.5249E+01
  -5.160  0.5024E+00  0.5254E+01
  -5.150  0.5181E+00  0.5259E+01
  -5.140  0.5334E+00  0.5264E+01
  -5.130  0.5481E+00  0.5270E+01
  -5.120  0.5617E+00  0.5275E+01
  -5.110  0.5740E+00  0.5281E+01
  -5.100  0.5847E+00  0.5287E+01
  -5.090  0.5935E+00  0.5293E+01
  -5.080  0.6003E+00  0.5299E+01
  -5.070  0.6048E+00  0.5305E+01
  -5.060  0.6070E+00  0.5311E+01
  -5.050  0.6069E+00  0.5317E+01
  -5.040  0.6044E+00  0.5323E+01
  -5.030  0.5996E+00  0.5329E+01
  -5.020  0.5926E+00  0.5335E+01
  -5.010  0.5837E+00  0.5341E+01
  -5.000  0.5730E+00  0.5346E+01
  -4.990  0.5608E+00  0.5352E+01
  -4.980  0.5475E+00  0.5357E+01
  -4.970  0.5332E+00  0.5363E+01
  -4.960  0.5184E+00  0.5368E+01
  -4.950  0.5034E+00  0.5373E+01
  -4.940  0.4883E+00  0.5378E+01
  -4.930  0.4736E+00  0.5383E+01
  -4.920  0.4594E+00  0.5387E+01
  -4.910  0.4458E+00  0.5392E+01
  -4.900  0.4330E+00  0.5396E+01
  -4.890  0.4211E+00  0.5400E+01
  -4.880  0.4100E+00  0.5404E+01
  -4.870  0.3997E+00  0.5408E+01
  -4.860  0.3901E+00  0.5412E+01
  -4.850  0.3812E+00  0.5416E+01
  -4.840  0.3728E+00  0.5420E+01
  -4.830  0.3648E+00  0.5423E+01
  -4.820  0.3572E+00  0.5427E+01
  -4.810  0.3498E+00  0.5430E+01
  -4.800  0.3427E+00  0.5434E+01
  -4.790  0.3358E+00  0.5437E+01
  -4.780  0.3291E+00  0.5441E+01
  -4.770  0.3229E+00  0.5444E+01
  -4.760  0.3172E+00  0.5447E+01
  -4.750  0.3121E+00  0.5450E+01
  -4.740  0.3079E+00  0.5453E+01
  -4.730  0.3046E+00  0.5456E+01
  -4.720  0.3025E+00  0.5459E+01
  -4.710  0.3017E+00  0.5462E+01
  -4.700  0.3021E+00  0.5465E+01
  -4.690  0.3039E+00  0.5468E+01
  -4.680  0.3071E+00  0.5471E+01
  -4.670  0.3114E+00  0.5474E+01
  -4.660  0.3168E+00  0.5478E+01
  -4.650  0.3231E+00  0.5481E+01
  -4.640  0.3300E+00  0.5484E+01
  -4.630  0.3370E+00  0.5488E+01
  -4.620  0.3440E+00  0.5491E+01
  -4.610  0.3505E+00  0.5495E+01
  -4.600  0.3562E+00  0.5498E+01
  -4.590  0.3608E+00  0.5502E+01
  -4.580  0.3639E+00  0.5505E+01
  -4.570  0.3652E+00  0.5509E+01
  -4.560  0.3647E+00  0.5513E+01
  -4.550  0.3622E+00  0.5516E+01
  -4.540  0.3577E+00  0.5520E+01
  -4.530  0.3513E+00  0.5523E+01
  -4.520  0.3431E+00  0.5527E+01
  -4.510  0.3333E+00  0.5530E+01
  -4.500  0.3221E+00  0.5533E+01
  -4.490  0.3100E+00  0.5536E+01
  -4.480  0.2972E+00  0.5539E+01
  -4.470  0.2840E+00  0.5542E+01
  -4.460  0.2710E+00  0.5545E+01
  -4.450  0.2583E+00  0.5548E+01
  -4.440  0.2463E+00  0.5550E+01
  -4.430  0.2353E+00  0.5552E+01
  -4.420  0.2253E+00  0.5555E+01
  -4.410  0.2166E+00  0.5557E+01
  -4.400  0.2093E+00  0.5559E+01
  -4.390  0.2034E+00  0.5561E+01
  -4.380  0.1987E+00  0.5563E+01
  -4.370  0.1953E+00  0.5565E+01
  -4.360  0.1930E+00  0.5567E+01
  -4.350  0.1917E+00  0.5569E+01
  -4.340  0.1911E+00  0.5571E+01
  -4.330  0.1911E+00  0.5572E+01
  -4.320  0.1915E+00  0.5574E+01
  -4.310  0.1921E+00  0.5576E+01
  -4.300  0.1927E+00  0.5578E+01
  -4.290  0.1932E+00  0.5580E+01
  -4.280  0.1935E+00  0.5582E+01
  -4.270  0.1934E+00  0.5584E+01
  -4.260  0.1930E+00  0.5586E+01
  -4.250  0.1921E+00  0.5588E+01
  -4.240  0.1909E+00  0.5590E+01
  -4.230  0.1894E+00  0.5592E+01
  -4.220  0.1876E+00  0.5594E+01
  -4.210  0.1857E+00  0.5595E+01
  -4.200  0.1837E+00  0.5597E+01
  -4.190  0.1818E+00  0.5599E+01
  -4.180  0.1801E+00  0.5601E+01
  -4.170  0.1787E+00  0.5603E+01
  -4.160  0.1777E+00  0.5604E+01
  -4.150  0.1773E+00  0.5606E+01
  -4.140  0.1774E+00  0.5608E+01
  -4.130  0.1782E+00  0.5610E+01
  -4.120  0.1795E+00  0.5612E+01
  -4.110  0.1815E+00  0.5613E+01
  -4.100  0.1839E+00  0.5615E+01
  -4.090  0.1868E+00  0.5617E+01
  -4.080  0.1899E+00  0.5619E+01
  -4.070  0.1932E+00  0.5621E+01
  -4.060  0.1965E+00  0.5623E+01
  -4.050  0.1996E+00  0.5625E+01
  -4.040  0.2023E+00  0.5627E+01
  -4.030  0.2045E+00  0.5629E+01
  -4.020  0.2060E+00  0.5631E+01
  -4.010  0.2068E+00  0.5633E+01
  -4.000  0.2066E+00  0.5635E+01
  -3.990  0.2055E+00  0.5637E+01
  -3.980  0.2034E+00  0.5639E+01
  -3.970  0.2003E+00  0.5641E+01
  -3.960  0.1963E+00  0.5643E+01
  -3.950  0.1915E+00  0.5645E+01
  -3.940  0.1860E+00  0.5647E+01
  -3.930  0.1800E+00  0.5649E+01
  -3.920  0.1735E+00  0.5651E+01
  -3.910  0.1668E+00  0.5652E+01
  -3.900  0.1600E+00  0.5654E+01
  -3.890  0.1534E+00  0.5655E+01
  -3.880  0.1470E+00  0.5657E+01
  -3.870  0.1409E+00  0.5658E+01
  -3.860  0.1354E+00  0.5660E+01
  -3.850  0.1305E+00  0.5661E+01
  -3.840  0.1261E+00  0.5662E+01
  -3.830  0.1225E+00  0.5663E+01
  -3.820  0.1195E+00  0.5665E+01
  -3.810  0.1171E+00  0.5666E+01
  -3.800  0.1154E+00  0.5667E+01
  -3.790  0.1141E+00  0.5668E+01
  -3.780  0.1134E+00  0.5669E+01
  -3.770  0.1130E+00  0.5670E+01
  -3.760  0.1129E+00  0.5671E+01
  -3.750  0.1131E+00  0.5673E+01
  -3.740  0.1134E+00  0.5674E+01
  -3.730  0.1137E+00  0.5675E+01
  -3.720  0.1140E+00  0.5676E+01
  -3.710  0.1142E+00  0.5677E+01
  -3.700  0.1143E+00  0.5678E+01
  -3.690  0.1142E+00  0.5679E+01
  -3.680  0.1138E+00  0.5681E+01
  -3.670  0.1133E+00  0.5682E+01
  -3.660  0.1125E+00  0.5683E+01
  -3.650  0.1115E+00  0.5684E+01
  -3.640  0.1103E+00  0.5685E+01
  -3.630  0.1090E+00  0.5686E+01
  -3.620  0.1077E+00  0.5687E+01
  -3.610  0.1063E+00  0.5688E+01
  -3.600  0.1049E+00  0.5689E+01
  -3.590  0.1036E+00  0.5690E+01
  -3.580  0.1024E+00  0.5691E+01
  -3.570  0.1014E+00  0.5692E+01
  -3.560  0.1006E+00  0.5693E+01
  -3.550  0.1001E+00  0.5694E+01
  -3.540  0.9981E-01  0.5695E+01
  -3.530  0.9979E-01  0.5696E+01
  -3.520  0.1000E+00  0.5697E+01
  -3.510  0.1004E+00  0.5698E+01
  -3.500  0.1010E+00  0.5699E+01
  -3.490  0.1018E+00  0.5700E+01
  -3.480  0.1026E+00  0.5701E+01
  -3.470  0.1034E+00  0.5702E+01
  -3.460  0.1042E+00  0.5703E+01
  -3.450  0.1048E+00  0.5705E+01
  -3.440  0.1054E+00  0.5706E+01
  -3.430  0.1057E+00  0.5707E+01
  -3.420  0.1057E+00  0.5708E+01
  -3.410  0.1055E+00  0.5709E+01
  -3.400  0.1049E+00  0.5710E+01
  -3.390  0.1040E+00  0.5711E+01
  -3.380  0.1028E+00  0.5712E+01
  -3.370  0.1012E+00  0.5713E+01
  -3.360  0.9922E-01  0.5714E+01
  -3.350  0.9694E-01  0.5715E+01
  -3.340  0.9436E-01  0.5716E+01
  -3.330  0.9152E-01  0.5717E+01
  -3.320  0.8843E-01  0.5718E+01
  -3.310  0.8517E-01  0.5718E+01
  -3.300  0.8176E-01  0.5719E+01
  -3.290  0.7826E-01  0.5720E+01
  -3.280  0.7473E-01  0.5721E+01
  -3.270  0.7122E-01  0.5721E+01
  -3.260  0.6777E-01  0.5722E+01
  -3.250  0.6446E-01  0.5723E+01
  -3.240  0.6131E-01  0.5723E+01
  -3.230  0.5837E-01  0.5724E+01
  -3.220  0.5568E-01  0.5725E+01
  -3.210  0.5328E-01  0.5725E+01
  -3.200  0.5116E-01  0.5726E+01
  -3.190  0.4935E-01  0.5726E+01
  -3.180  0.4785E-01  0.5727E+01
  -3.170  0.4663E-01  0.5727E+01
  -3.160  0.4569E-01  0.5728E+01
  -3.150  0.4498E-01  0.5728E+01
  -3.140  0.4449E-01  0.5728E+01
  -3.130  0.4415E-01  0.5729E+01
  -3.120  0.4394E-01  0.5729E+01
  -3.110  0.4382E-01  0.5730E+01
  -3.100  0.4374E-01  0.5730E+01
  -3.090  0.4368E-01  0.5731E+01
  -3.080  0.4361E-01  0.5731E+01
  -3.070  0.4351E-01  0.5731E+01
  -3.060  0.4339E-01  0.5732E+01
  -3.050  0.4324E-01  0.5732E+01
  -3.040  0.4307E-01  0.5733E+01
  -3.030  0.4290E-01  0.5733E+01
  -3.020  0.4274E-01  0.5734E+01
  -3.010  0.4260E-01  0.5734E+01
  -3.000  0.4252E-01  0.5734E+01
  -2.990  0.4249E-01  0.5735E+01
  -2.980  0.4252E-01  0.5735E+01
  -2.970  0.4261E-01  0.5736E+01
  -2.960  0.4275E-01  0.5736E+01
  -2.950  0.4291E-01  0.5737E+01
  -2.940  0.4308E-01  0.5737E+01
  -2.930  0.4320E-01  0.5737E+01
  -2.920  0.4326E-01  0.5738E+01
  -2.910  0.4319E-01  0.5738E+01
  -2.900  0.4296E-01  0.5739E+01
  -2.890  0.4255E-01  0.5739E+01
  -2.880  0.4190E-01  0.5740E+01
  -2.870  0.4101E-01  0.5740E+01
  -2.860  0.3986E-01  0.5740E+01
  -2.850  0.3846E-01  0.5741E+01
  -2.840  0.3680E-01  0.5741E+01
  -2.830  0.3492E-01  0.5742E+01
  -2.820  0.3284E-01  0.5742E+01
  -2.810  0.3060E-01  0.5742E+01
  -2.800  0.2824E-01  0.5742E+01
  -2.790  0.2581E-01  0.5743E+01
  -2.780  0.2336E-01  0.5743E+01
  -2.770  0.2092E-01  0.5743E+01
  -2.760  0.1855E-01  0.5743E+01
  -2.750  0.1629E-01  0.5743E+01
  -2.740  0.1415E-01  0.5744E+01
  -2.730  0.1216E-01  0.5744E+01
  -2.720  0.1035E-01  0.5744E+01
  -2.710  0.8714E-02  0.5744E+01
  -2.700  0.7265E-02  0.5744E+01
  -2.690  0.5998E-02  0.5744E+01
  -2.680  0.4909E-02  0.5744E+01
  -2.670  0.3987E-02  0.5744E+01
  -2.660  0.3222E-02  0.5744E+01
  -2.650  0.2603E-02  0.5744E+01
  -2.640  0.2115E-02  0.5744E+01
  -2.630  0.1750E-02  0.5744E+01
  -2.620  0.1498E-02  0.5744E+01
  -2.610  0.1351E-02  0.5744E+01
  -2.600  0.1306E-02  0.5744E+01
  -2.590  0.1361E-02  0.5744E+01
  -2.580  0.1517E-02  0.5744E+01
  -2.570  0.1780E-02  0.5744E+01
  -2.560  0.2157E-02  0.5744E+01
  -2.550  0.2656E-02  0.5744E+01
  -2.540  0.3290E-02  0.5744E+01
  -2.530  0.4070E-02  0.5744E+01
  -2.520  0.5008E-02  0.5745E+01
  -2.510  0.6116E-02  0.5745E+01
  -2.500  0.7402E-02  0.5745E+01
  -2.490  0.8872E-02  0.5745E+01
  -2.480  0.1053E-01  0.5745E+01
  -2.470  0.1236E-01  0.5745E+01
  -2.460  0.1437E-01  0.5745E+01
  -2.450  0.1653E-01  0.5745E+01
  -2.440  0.1883E-01  0.5745E+01
  -2.430  0.2122E-01  0.5746E+01
  -2.420  0.2368E-01  0.5746E+01
  -2.410  0.2615E-01  0.5746E+01
  -2.400  0.2861E-01  0.5746E+01
  -2.390  0.3100E-01  0.5747E+01
  -2.380  0.3327E-01  0.5747E+01
  -2.370  0.3539E-01  0.5747E+01
  -2.360  0.3731E-01  0.5748E+01
  -2.350  0.3901E-01  0.5748E+01
  -2.340  0.4047E-01  0.5749E+01
  -2.330  0.4167E-01  0.5749E+01
  -2.320  0.4263E-01  0.5749E+01
  -2.310  0.4334E-01  0.5750E+01
  -2.300  0.4384E-01  0.5750E+01
  -2.290  0.4414E-01  0.5751E+01
  -2.280  0.4429E-01  0.5751E+01
  -2.270  0.4433E-01  0.5752E+01
  -2.260  0.4429E-01  0.5752E+01
  -2.250  0.4420E-01  0.5753E+01
  -2.240  0.4412E-01  0.5753E+01
  -2.230  0.4405E-01  0.5753E+01
  -2.220  0.4402E-01  0.5754E+01
  -2.210  0.4405E-01  0.5754E+01
  -2.200  0.4414E-01  0.5755E+01
  -2.190  0.4429E-01  0.5755E+01
  -2.180  0.4449E-01  0.5756E+01
  -2.170  0.4473E-01  0.5756E+01
  -2.160  0.4500E-01  0.5757E+01
  -2.150  0.4530E-01  0.5757E+01
  -2.140  0.4560E-01  0.5757E+01
  -2.130  0.4592E-01  0.5758E+01
  -2.120  0.4625E-01  0.5758E+01
  -2.110  0.4661E-01  0.5759E+01
  -2.100  0.4700E-01  0.5759E+01
  -2.090  0.4746E-01  0.5760E+01
  -2.080  0.4801E-01  0.5760E+01
  -2.070  0.4867E-01  0.5761E+01
  -2.060  0.4947E-01  0.5761E+01
  -2.050  0.5046E-01  0.5762E+01
  -2.040  0.5164E-01  0.5762E+01
  -2.030  0.5305E-01  0.5763E+01
  -2.020  0.5470E-01  0.5763E+01
  -2.010  0.5661E-01  0.5764E+01
  -2.000  0.5879E-01  0.5765E+01
  -1.990  0.6122E-01  0.5765E+01
  -1.980  0.6390E-01  0.5766E+01
  -1.970  0.6682E-01  0.5766E+01
  -1.960  0.6995E-01  0.5767E+01
  -1.950  0.7328E-01  0.5768E+01
  -1.940  0.7678E-01  0.5769E+01
  -1.930  0.8040E-01  0.5769E+01
  -1.920  0.8411E-01  0.5770E+01
  -1.910  0.8788E-01  0.5771E+01
  -1.900  0.9165E-01  0.5772E+01
  -1.890  0.9538E-01  0.5773E+01
  -1.880  0.9902E-01  0.5774E+01
  -1.870  0.1025E+00  0.5775E+01
  -1.860  0.1059E+00  0.5776E+01
  -1.850  0.1089E+00  0.5777E+01
  -1.840  0.1118E+00  0.5778E+01
  -1.830  0.1143E+00  0.5779E+01
  -1.820  0.1165E+00  0.5781E+01
  -1.810  0.1183E+00  0.5782E+01
  -1.800  0.1198E+00  0.5783E+01
  -1.790  0.1210E+00  0.5784E+01
  -1.780  0.1218E+00  0.5785E+01
  -1.770  0.1223E+00  0.5787E+01
  -1.760  0.1225E+00  0.5788E+01
  -1.750  0.1226E+00  0.5789E+01
  -1.740  0.1225E+00  0.5790E+01
  -1.730  0.1223E+00  0.5792E+01
  -1.720  0.1221E+00  0.5793E+01
  -1.710  0.1219E+00  0.5794E+01
  -1.700  0.1218E+00  0.5795E+01
  -1.690  0.1219E+00  0.5796E+01
  -1.680  0.1221E+00  0.5798E+01
  -1.670  0.1225E+00  0.5799E+01
  -1.660  0.1231E+00  0.5800E+01
  -1.650  0.1239E+00  0.5801E+01
  -1.640  0.1249E+00  0.5803E+01
  -1.630  0.1260E+00  0.5804E+01
  -1.620  0.1272E+00  0.5805E+01
  -1.610  0.1285E+00  0.5806E+01
  -1.600  0.1298E+00  0.5808E+01
  -1.590  0.1311E+00  0.5809E+01
  -1.580  0.1322E+00  0.5810E+01
  -1.570  0.1333E+00  0.5812E+01
  -1.560  0.1341E+00  0.5813E+01
  -1.550  0.1349E+00  0.5814E+01
  -1.540  0.1355E+00  0.5816E+01
  -1.530  0.1359E+00  0.5817E+01
  -1.520  0.1364E+00  0.5818E+01
  -1.510  0.1369E+00  0.5820E+01
  -1.500  0.1375E+00  0.5821E+01
  -1.490  0.1384E+00  0.5823E+01
  -1.480  0.1397E+00  0.5824E+01
  -1.470  0.1415E+00  0.5825E+01
  -1.460  0.1440E+00  0.5827E+01
  -1.450  0.1473E+00  0.5828E+01
  -1.440  0.1516E+00  0.5830E+01
  -1.430  0.1568E+00  0.5831E+01
  -1.420  0.1631E+00  0.5833E+01
  -1.410  0.1705E+00  0.5835E+01
  -1.400  0.1789E+00  0.5836E+01
  -1.390  0.1883E+00  0.5838E+01
  -1.380  0.1986E+00  0.5840E+01
  -1.370  0.2096E+00  0.5842E+01
  -1.360  0.2211E+00  0.5845E+01
  -1.350  0.2328E+00  0.5847E+01
  -1.340  0.2446E+00  0.5849E+01
  -1.330  0.2561E+00  0.5852E+01
  -1.320  0.2671E+00  0.5855E+01
  -1.310  0.2773E+00  0.5857E+01
  -1.300  0.2865E+00  0.5860E+01
  -1.290  0.2946E+00  0.5863E+01
  -1.280  0.3014E+00  0.5866E+01
  -1.270  0.3070E+00  0.5869E+01
  -1.260  0.3113E+00  0.5872E+01
  -1.250  0.3144E+00  0.5876E+01
  -1.240  0.3166E+00  0.5879E+01
  -1.230  0.3181E+00  0.5882E+01
  -1.220  0.3191E+00  0.5885E+01
  -1.210  0.3200E+00  0.5888E+01
  -1.200  0.3212E+00  0.5892E+01
  -1.190  0.3229E+00  0.5895E+01
  -1.180  0.3257E+00  0.5898E+01
  -1.170  0.3296E+00  0.5901E+01
  -1.160  0.3352E+00  0.5905E+01
  -1.150  0.3424E+00  0.5908E+01
  -1.140  0.3515E+00  0.5912E+01
  -1.130  0.3625E+00  0.5915E+01
  -1.120  0.3754E+00  0.5919E+01
  -1.110  0.3901E+00  0.5923E+01
  -1.100  0.4063E+00  0.5927E+01
  -1.090  0.4239E+00  0.5931E+01
  -1.080  0.4425E+00  0.5936E+01
  -1.070  0.4617E+00  0.5940E+01
  -1.060  0.4811E+00  0.5945E+01
  -1.050  0.5004E+00  0.5950E+01
  -1.040  0.5191E+00  0.5955E+01
  -1.030  0.5368E+00  0.5961E+01
  -1.020  0.5532E+00  0.5966E+01
  -1.010  0.5680E+00  0.5972E+01
  -1.000  0.5808E+00  0.5978E+01
  -0.990  0.5915E+00  0.5984E+01
  -0.980  0.6000E+00  0.5990E+01
  -0.970  0.6062E+00  0.5996E+01
  -0.960  0.6101E+00  0.6002E+01
  -0.950  0.6118E+00  0.6008E+01
  -0.940  0.6115E+00  0.6014E+01
  -0.930  0.6093E+00  0.6020E+01
  -0.920  0.6055E+00  0.6026E+01
  -0.910  0.6003E+00  0.6032E+01
  -0.900  0.5940E+00  0.6038E+01
  -0.890  0.5868E+00  0.6044E+01
  -0.880  0.5791E+00  0.6050E+01
  -0.870  0.5710E+00  0.6055E+01
  -0.860  0.5628E+00  0.6061E+01
  -0.850  0.5547E+00  0.6067E+01
  -0.840  0.5469E+00  0.6072E+01
  -0.830  0.5394E+00  0.6077E+01
  -0.820  0.5324E+00  0.6083E+01
  -0.810  0.5258E+00  0.6088E+01
  -0.800  0.5198E+00  0.6093E+01
  -0.790  0.5141E+00  0.6098E+01
  -0.780  0.5088E+00  0.6103E+01
  -0.770  0.5038E+00  0.6108E+01
  -0.760  0.4989E+00  0.6113E+01
  -0.750  0.4940E+00  0.6118E+01
  -0.740  0.4889E+00  0.6123E+01
  -0.730  0.4836E+00  0.6128E+01
  -0.720  0.4779E+00  0.6133E+01
  -0.710  0.4717E+00  0.6138E+01
  -0.700  0.4648E+00  0.6142E+01
  -0.690  0.4574E+00  0.6147E+01
  -0.680  0.4492E+00  0.6151E+01
  -0.670  0.4405E+00  0.6156E+01
  -0.660  0.4311E+00  0.6160E+01
  -0.650  0.4212E+00  0.6164E+01
  -0.640  0.4110E+00  0.6168E+01
  -0.630  0.4007E+00  0.6172E+01
  -0.620  0.3903E+00  0.6176E+01
  -0.610  0.3800E+00  0.6180E+01
  -0.600  0.3702E+00  0.6184E+01
  -0.590  0.3609E+00  0.6187E+01
  -0.580  0.3525E+00  0.6191E+01
  -0.570  0.3449E+00  0.6194E+01
  -0.560  0.3384E+00  0.6198E+01
  -0.550  0.3330E+00  0.6201E+01
  -0.540  0.3288E+00  0.6204E+01
  -0.530  0.3258E+00  0.6208E+01
  -0.520  0.3240E+00  0.6211E+01
  -0.510  0.3233E+00  0.6214E+01
  -0.500  0.3235E+00  0.6217E+01
  -0.490  0.3246E+00  0.6221E+01
  -0.480  0.3263E+00  0.6224E+01
  -0.470  0.3284E+00  0.6227E+01
  -0.460  0.3308E+00  0.6230E+01
  -0.450  0.3332E+00  0.6234E+01
  -0.440  0.3353E+00  0.6237E+01
  -0.430  0.3371E+00  0.6241E+01
  -0.420  0.3384E+00  0.6244E+01
  -0.410  0.3390E+00  0.6247E+01
  -0.400  0.3388E+00  0.6251E+01
  -0.390  0.3378E+00  0.6254E+01
  -0.380  0.3361E+00  0.6257E+01
  -0.370  0.3336E+00  0.6261E+01
  -0.360  0.3304E+00  0.6264E+01
  -0.350  0.3266E+00  0.6267E+01
  -0.340  0.3224E+00  0.6271E+01
  -0.330  0.3180E+00  0.6274E+01
  -0.320  0.3135E+00  0.6277E+01
  -0.310  0.3091E+00  0.6280E+01
  -0.300  0.3050E+00  0.6283E+01
  -0.290  0.3013E+00  0.6286E+01
  -0.280  0.2982E+00  0.6289E+01
  -0.270  0.2958E+00  0.6292E+01
  -0.260  0.2942E+00  0.6295E+01
  -0.250  0.2934E+00  0.6298E+01
  -0.240  0.2934E+00  0.6301E+01
  -0.230  0.2942E+00  0.6304E+01
  -0.220  0.2959E+00  0.6307E+01
  -0.210  0.2982E+00  0.6310E+01
  -0.200  0.3012E+00  0.6313E+01
  -0.190  0.3047E+00  0.6316E+01
  -0.180  0.3087E+00  0.6319E+01
  -0.170  0.3129E+00  0.6322E+01
  -0.160  0.3172E+00  0.6325E+01
  -0.150  0.3215E+00  0.6328E+01
  -0.140  0.3257E+00  0.6332E+01
  -0.130  0.3295E+00  0.6335E+01
  -0.120  0.3329E+00  0.6338E+01
  -0.110  0.3357E+00  0.6342E+01
  -0.100  0.3377E+00  0.6345E+01
  -0.090  0.3388E+00  0.6348E+01
  -0.080  0.3390E+00  0.6352E+01
  -0.070  0.3382E+00  0.6355E+01
  -0.060  0.3364E+00  0.6358E+01
  -0.050  0.3335E+00  0.6362E+01
  -0.040  0.3295E+00  0.6365E+01
  -0.030  0.3246E+00  0.6368E+01
  -0.020  0.3188E+00  0.6372E+01
  -0.010  0.3122E+00  0.6375E+01
   0.000  0.3050E+00  0.6378E+01
   0.010  0.2974E+00  0.6381E+01
   0.020  0.2895E+00  0.6384E+01
   0.030  0.2815E+00  0.6386E+01
   0.040  0.2736E+00  0.6389E+01
   0.050  0.2659E+00  0.6392E+01
   0.060  0.2588E+00  0.6394E+01
   0.070  0.2522E+00  0.6397E+01
   0.080  0.2463E+00  0.6399E+01
   0.090  0.2413E+00  0.6402E+01
   0.100  0.2371E+00  0.6404E+01
   0.110  0.2339E+00  0.6406E+01
   0.120  0.2317E+00  0.6409E+01
   0.130  0.2304E+00  0.6411E+01
   0.140  0.2301E+00  0.6413E+01
   0.150  0.2306E+00  0.6416E+01
   0.160  0.2320E+00  0.6418E+01
   0.170  0.2341E+00  0.6420E+01
   0.180  0.2368E+00  0.6423E+01
   0.190  0.2401E+00  0.6425E+01
   0.200  0.2438E+00  0.6428E+01
   0.210  0.2478E+00  0.6430E+01
   0.220  0.2520E+00  0.6433E+01
   0.230  0.2563E+00  0.6435E+01
   0.240  0.2605E+00  0.6438E+01
   0.250  0.2645E+00  0.6440E+01
   0.260  0.2683E+00  0.6443E+01
   0.270  0.2717E+00  0.6446E+01
   0.280  0.2746E+00  0.6449E+01
   0.290  0.2771E+00  0.6451E+01
   0.300  0.2789E+00  0.6454E+01
   0.310  0.2803E+00  0.6457E+01
   0.320  0.2810E+00  0.6460E+01
   0.330  0.2813E+00  0.6462E+01
   0.340  0.2813E+00  0.6465E+01
   0.350  0.2809E+00  0.6468E+01
   0.360  0.2804E+00  0.6471E+01
   0.370  0.2800E+00  0.6474E+01
   0.380  0.2798E+00  0.6477E+01
   0.390  0.2801E+00  0.6479E+01
   0.400  0.2810E+00  0.6482E+01
   0.410  0.2828E+00  0.6485E+01
   0.420  0.2855E+00  0.6488E+01
   0.430  0.2893E+00  0.6491E+01
   0.440  0.2944E+00  0.6494E+01
   0.450  0.3006E+00  0.6497E+01
   0.460  0.3081E+00  0.6500E+01
   0.470  0.3168E+00  0.6503E+01
   0.480  0.3265E+00  0.6506E+01
   0.490  0.3371E+00  0.6510E+01
   0.500  0.3484E+00  0.6513E+01
   0.510  0.3602E+00  0.6517E+01
   0.520  0.3721E+00  0.6520E+01
   0.530  0.3841E+00  0.6524E+01
   0.540  0.3957E+00  0.6528E+01
   0.550  0.4068E+00  0.6532E+01
   0.560  0.4172E+00  0.6536E+01
   0.570  0.4267E+00  0.6541E+01
   0.580  0.4352E+00  0.6545E+01
   0.590  0.4426E+00  0.6549E+01
   0.600  0.4489E+00  0.6554E+01
   0.610  0.4540E+00  0.6558E+01
   0.620  0.4581E+00  0.6563E+01
   0.630  0.4612E+00  0.6568E+01
   0.640  0.4634E+00  0.6572E+01
   0.650  0.4649E+00  0.6577E+01
   0.660  0.4657E+00  0.6582E+01
   0.670  0.4661E+00  0.6586E+01
   0.680  0.4660E+00  0.6591E+01
   0.690  0.4658E+00  0.6596E+01
   0.700  0.4653E+00  0.6600E+01
   0.710  0.4647E+00  0.6605E+01
   0.720  0.4641E+00  0.6610E+01
   0.730  0.4633E+00  0.6614E+01
   0.740  0.4625E+00  0.6619E+01
   0.750  0.4616E+00  0.6623E+01
   0.760  0.4606E+00  0.6628E+01
   0.770  0.4594E+00  0.6633E+01
   0.780  0.4580E+00  0.6637E+01
   0.790  0.4564E+00  0.6642E+01
   0.800  0.4545E+00  0.6646E+01
   0.810  0.4524E+00  0.6651E+01
   0.820  0.4501E+00  0.6655E+01
   0.830  0.4475E+00  0.6660E+01
   0.840  0.4449E+00  0.6664E+01
   0.850  0.4422E+00  0.6669E+01
   0.860  0.4395E+00  0.6673E+01
   0.870  0.4369E+00  0.6677E+01
   0.880  0.4345E+00  0.6682E+01
   0.890  0.4323E+00  0.6686E+01
   0.900  0.4305E+00  0.6690E+01
   0.910  0.4291E+00  0.6695E+01
   0.920  0.4282E+00  0.6699E+01
   0.930  0.4279E+00  0.6703E+01
   0.940  0.4281E+00  0.6708E+01
   0.950  0.4289E+00  0.6712E+01
   0.960  0.4303E+00  0.6716E+01
   0.970  0.4324E+00  0.6720E+01
   0.980  0.4352E+00  0.6725E+01
   0.990  0.4387E+00  0.6729E+01
   1.000  0.4428E+00  0.6734E+01
   1.010  0.4477E+00  0.6738E+01
   1.020  0.4533E+00  0.6743E+01
   1.030  0.4596E+00  0.6747E+01
   1.040  0.4667E+00  0.6752E+01
   1.050  0.4745E+00  0.6757E+01
   1.060  0.4831E+00  0.6761E+01
   1.070  0.4923E+00  0.6766E+01
   1.080  0.5022E+00  0.6771E+01
   1.090  0.5126E+00  0.6777E+01
   1.100  0.5235E+00  0.6782E+01
   1.110  0.5349E+00  0.6787E+01
   1.120  0.5465E+00  0.6793E+01
   1.130  0.5582E+00  0.6798E+01
   1.140  0.5700E+00  0.6804E+01
   1.150  0.5816E+00  0.6810E+01
   1.160  0.5929E+00  0.6816E+01
   1.170  0.6039E+00  0.6822E+01
   1.180  0.6143E+00  0.6828E+01
   1.190  0.6242E+00  0.6834E+01
   1.200  0.6333E+00  0.6840E+01
   1.210  0.6416E+00  0.6847E+01
   1.220  0.6491E+00  0.6853E+01
   1.230  0.6558E+00  0.6860E+01
   1.240  0.6616E+00  0.6866E+01
   1.250  0.6665E+00  0.6873E+01
   1.260  0.6705E+00  0.6880E+01
   1.270  0.6736E+00  0.6887E+01
   1.280  0.6759E+00  0.6893E+01
   1.290  0.6773E+00  0.6900E+01
   1.300  0.6779E+00  0.6907E+01
   1.310  0.6777E+00  0.6914E+01
   1.320  0.6767E+00  0.6920E+01
   1.330  0.6750E+00  0.6927E+01
   1.340  0.6726E+00  0.6934E+01
   1.350  0.6696E+00  0.6941E+01
   1.360  0.6661E+00  0.6947E+01
   1.370  0.6622E+00  0.6954E+01
   1.380  0.6579E+00  0.6960E+01
   1.390  0.6534E+00  0.6967E+01
   1.400  0.6488E+00  0.6973E+01
   1.410  0.6444E+00  0.6980E+01
   1.420  0.6401E+00  0.6986E+01
   1.430  0.6364E+00  0.6993E+01
   1.440  0.6332E+00  0.6999E+01
   1.450  0.6308E+00  0.7005E+01
   1.460  0.6293E+00  0.7012E+01
   1.470  0.6290E+00  0.7018E+01
   1.480  0.6300E+00  0.7024E+01
   1.490  0.6325E+00  0.7031E+01
   1.500  0.6365E+00  0.7037E+01
   1.510  0.6422E+00  0.7043E+01
   1.520  0.6496E+00  0.7050E+01
   1.530  0.6589E+00  0.7056E+01
   1.540  0.6699E+00  0.7063E+01
   1.550  0.6826E+00  0.7070E+01
   1.560  0.6969E+00  0.7077E+01
   1.570  0.7128E+00  0.7084E+01
   1.580  0.7299E+00  0.7091E+01
   1.590  0.7480E+00  0.7099E+01
   1.600  0.7669E+00  0.7106E+01
   1.610  0.7862E+00  0.7114E+01
   1.620  0.8057E+00  0.7122E+01
   1.630  0.8250E+00  0.7131E+01
   1.640  0.8437E+00  0.7139E+01
   1.650  0.8617E+00  0.7148E+01
   1.660  0.8786E+00  0.7156E+01
   1.670  0.8941E+00  0.7165E+01
   1.680  0.9083E+00  0.7174E+01
   1.690  0.9208E+00  0.7184E+01
   1.700  0.9318E+00  0.7193E+01
   1.710  0.9412E+00  0.7202E+01
   1.720  0.9491E+00  0.7212E+01
   1.730  0.9557E+00  0.7221E+01
   1.740  0.9611E+00  0.7231E+01
   1.750  0.9656E+00  0.7241E+01
   1.760  0.9693E+00  0.7250E+01
   1.770  0.9726E+00  0.7260E+01
   1.780  0.9756E+00  0.7270E+01
   1.790  0.9785E+00  0.7280E+01
   1.800  0.9817E+00  0.7290E+01
   1.810  0.9852E+00  0.7299E+01
   1.820  0.9892E+00  0.7309E+01
   1.830  0.9938E+00  0.7319E+01
   1.840  0.9991E+00  0.7329E+01
   1.850  0.1005E+01  0.7339E+01
   1.860  0.1012E+01  0.7349E+01
   1.870  0.1019E+01  0.7360E+01
   1.880  0.1027E+01  0.7370E+01
   1.890  0.1036E+01  0.7380E+01
   1.900  0.1045E+01  0.7391E+01
   1.910  0.1055E+01  0.7401E+01
   1.920  0.1064E+01  0.7412E+01
   1.930  0.1074E+01  0.7423E+01
   1.940  0.1083E+01  0.7433E+01
   1.950  0.1092E+01  0.7444E+01
   1.960  0.1101E+01  0.7455E+01
   1.970  0.1109E+01  0.7466E+01
   1.980  0.1116E+01  0.7478E+01
   1.990  0.1122E+01  0.7489E+01
   2.000  0.1127E+01  0.7500E+01
   2.010  0.1132E+01  0.7511E+01
   2.020  0.1134E+01  0.7523E+01
   2.030  0.1136E+01  0.7534E+01
   2.040  0.1136E+01  0.7545E+01
   2.050  0.1136E+01  0.7557E+01
   2.060  0.1134E+01  0.7568E+01
   2.070  0.1131E+01  0.7579E+01
   2.080  0.1127E+01  0.7591E+01
   2.090  0.1122E+01  0.7602E+01
   2.100  0.1117E+01  0.7613E+01
   2.110  0.1111E+01  0.7624E+01
   2.120  0.1104E+01  0.7635E+01
   2.130  0.1097E+01  0.7646E+01
   2.140  0.1090E+01  0.7657E+01
   2.150  0.1083E+01  0.7668E+01
   2.160  0.1075E+01  0.7679E+01
   2.170  0.1068E+01  0.7689E+01
   2.180  0.1061E+01  0.7700E+01
   2.190  0.1055E+01  0.7711E+01
   2.200  0.1049E+01  0.7721E+01
   2.210  0.1044E+01  0.7731E+01
   2.220  0.1039E+01  0.7742E+01
   2.230  0.1035E+01  0.7752E+01
   2.240  0.1032E+01  0.7763E+01
   2.250  0.1030E+01  0.7773E+01
   2.260  0.1028E+01  0.7783E+01
   2.270  0.1027E+01  0.7793E+01
   2.280  0.1027E+01  0.7804E+01
   2.290  0.1028E+01  0.7814E+01
   2.300  0.1029E+01  0.7824E+01
   2.310  0.1031E+01  0.7835E+01
   2.320  0.1033E+01  0.7845E+01
   2.330  0.1036E+01  0.7855E+01
   2.340  0.1039E+01  0.7866E+01
   2.350  0.1043E+01  0.7876E+01
   2.360  0.1047E+01  0.7887E+01
   2.370  0.1050E+01  0.7897E+01
   2.380  0.1054E+01  0.7908E+01
   2.390  0.1058E+01  0.7918E+01
   2.400  0.1062E+01  0.7929E+01
   2.410  0.1065E+01  0.7939E+01
   2.420  0.1068E+01  0.7950E+01
   2.430  0.1070E+01  0.7961E+01
   2.440  0.1072E+01  0.7972E+01
   2.450  0.1074E+01  0.7982E+01
   2.460  0.1075E+01  0.7993E+01
   2.470  0.1076E+01  0.8004E+01
   2.480  0.1076E+01  0.8015E+01
   2.490  0.1076E+01  0.8025E+01
   2.500  0.1076E+01  0.8036E+01
   2.510  0.1075E+01  0.8047E+01
   2.520  0.1075E+01  0.8058E+01
   2.530  0.1074E+01  0.8068E+01
   2.540  0.1074E+01  0.8079E+01
   2.550  0.1074E+01  0.8090E+01
   2.560  0.1074E+01  0.8101E+01
   2.570  0.1074E+01  0.8111E+01
   2.580  0.1075E+01  0.8122E+01
   2.590  0.1075E+01  0.8133E+01
   2.600  0.1076E+01  0.8144E+01
   2.610  0.1077E+01  0.8154E+01
   2.620  0.1078E+01  0.8165E+01
   2.630  0.1079E+01  0.8176E+01
   2.640  0.1080E+01  0.8187E+01
   2.650  0.1081E+01  0.8197E+01
   2.660  0.1082E+01  0.8208E+01
   2.670  0.1083E+01  0.8219E+01
   2.680  0.1084E+01  0.8230E+01
   2.690  0.1085E+01  0.8241E+01
   2.700  0.1087E+01  0.8252E+01
   2.710  0.1088E+01  0.8263E+01
   2.720  0.1090E+01  0.8273E+01
   2.730  0.1092E+01  0.8284E+01
   2.740  0.1094E+01  0.8295E+01
   2.750  0.1097E+01  0.8306E+01
   2.760  0.1100E+01  0.8317E+01
   2.770  0.1103E+01  0.8328E+01
   2.780  0.1107E+01  0.8339E+01
   2.790  0.1112E+01  0.8351E+01
   2.800  0.1117E+01  0.8362E+01
   2.810  0.1122E+01  0.8373E+01
   2.820  0.1128E+01  0.8384E+01
   2.830  0.1134E+01  0.8396E+01
   2.840  0.1141E+01  0.8407E+01
   2.850  0.1148E+01  0.8418E+01
   2.860  0.1155E+01  0.8430E+01
   2.870  0.1163E+01  0.8442E+01
   2.880  0.1170E+01  0.8453E+01
   2.890  0.1178E+01  0.8465E+01
   2.900  0.1185E+01  0.8477E+01
   2.910  0.1193E+01  0.8489E+01
   2.920  0.1200E+01  0.8501E+01
   2.930  0.1206E+01  0.8513E+01
   2.940  0.1212E+01  0.8525E+01
   2.950  0.1218E+01  0.8537E+01
   2.960  0.1223E+01  0.8549E+01
   2.970  0.1228E+01  0.8562E+01
   2.980  0.1232E+01  0.8574E+01
   2.990  0.1236E+01  0.8586E+01
   3.000  0.1241E+01  0.8599E+01
   3.010  0.1245E+01  0.8611E+01
   3.020  0.1249E+01  0.8624E+01
   3.030  0.1254E+01  0.8636E+01
   3.040  0.1259E+01  0.8649E+01
   3.050  0.1264E+01  0.8662E+01
   3.060  0.1269E+01  0.8674E+01
   3.070  0.1275E+01  0.8687E+01
   3.080  0.1281E+01  0.8700E+01
   3.090  0.1288E+01  0.8713E+01
   3.100  0.1294E+01  0.8726E+01
   3.110  0.1301E+01  0.8739E+01
   3.120  0.1307E+01  0.8752E+01
   3.130  0.1313E+01  0.8765E+01
   3.140  0.1319E+01  0.8778E+01
   3.150  0.1324E+01  0.8791E+01
   3.160  0.1329E+01  0.8805E+01
   3.170  0.1334E+01  0.8818E+01
   3.180  0.1338E+01  0.8831E+01
   3.190  0.1341E+01  0.8845E+01
   3.200  0.1345E+01  0.8858E+01
   3.210  0.1348E+01  0.8872E+01
   3.220  0.1351E+01  0.8885E+01
   3.230  0.1355E+01  0.8899E+01
   3.240  0.1358E+01  0.8912E+01
   3.250  0.1361E+01  0.8926E+01
   3.260  0.1365E+01  0.8939E+01
   3.270  0.1369E+01  0.8953E+01
   3.280  0.1373E+01  0.8967E+01
   3.290  0.1378E+01  0.8981E+01
   3.300  0.1383E+01  0.8994E+01
   3.310  0.1389E+01  0.9008E+01
   3.320  0.1395E+01  0.9022E+01
   3.330  0.1401E+01  0.9036E+01
   3.340  0.1408E+01  0.9050E+01
   3.350  0.1415E+01  0.9065E+01
   3.360  0.1422E+01  0.9079E+01
   3.370  0.1430E+01  0.9093E+01
   3.380  0.1438E+01  0.9107E+01
   3.390  0.1446E+01  0.9122E+01
   3.400  0.1454E+01  0.9136E+01
   3.410  0.1463E+01  0.9151E+01
   3.420  0.1472E+01  0.9166E+01
   3.430  0.1481E+01  0.9181E+01
   3.440  0.1490E+01  0.9196E+01
   3.450  0.1499E+01  0.9211E+01
   3.460  0.1508E+01  0.9226E+01
   3.470  0.1518E+01  0.9241E+01
   3.480  0.1527E+01  0.9256E+01
   3.490  0.1536E+01  0.9271E+01
   3.500  0.1544E+01  0.9287E+01
   3.510  0.1553E+01  0.9302E+01
   3.520  0.1560E+01  0.9318E+01
   3.530  0.1567E+01  0.9334E+01
   3.540  0.1573E+01  0.9349E+01
   3.550  0.1578E+01  0.9365E+01
   3.560  0.1582E+01  0.9381E+01
   3.570  0.1585E+01  0.9397E+01
   3.580  0.1587E+01  0.9413E+01
   3.590  0.1587E+01  0.9429E+01
   3.600  0.1586E+01  0.9444E+01
   3.610  0.1584E+01  0.9460E+01
   3.620  0.1581E+01  0.9476E+01
   3.630  0.1577E+01  0.9492E+01
   3.640  0.1571E+01  0.9508E+01
   3.650  0.1565E+01  0.9523E+01
   3.660  0.1557E+01  0.9539E+01
   3.670  0.1549E+01  0.9554E+01
   3.680  0.1539E+01  0.9570E+01
   3.690  0.1529E+01  0.9585E+01
   3.700  0.1519E+01  0.9600E+01
   3.710  0.1507E+01  0.9615E+01
   3.720  0.1496E+01  0.9630E+01
   3.730  0.1484E+01  0.9645E+01
   3.740  0.1471E+01  0.9660E+01
   3.750  0.1459E+01  0.9674E+01
   3.760  0.1447E+01  0.9689E+01
   3.770  0.1435E+01  0.9703E+01
   3.780  0.1423E+01  0.9717E+01
   3.790  0.1413E+01  0.9731E+01
   3.800  0.1403E+01  0.9746E+01
   3.810  0.1394E+01  0.9759E+01
   3.820  0.1387E+01  0.9773E+01
   3.830  0.1381E+01  0.9787E+01
   3.840  0.1377E+01  0.9801E+01
   3.850  0.1374E+01  0.9815E+01
   3.860  0.1373E+01  0.9828E+01
   3.870  0.1374E+01  0.9842E+01
   3.880  0.1376E+01  0.9856E+01
   3.890  0.1379E+01  0.9870E+01
   3.900  0.1384E+01  0.9884E+01
   3.910  0.1390E+01  0.9897E+01
   3.920  0.1396E+01  0.9911E+01
   3.930  0.1403E+01  0.9925E+01
   3.940  0.1410E+01  0.9939E+01
   3.950  0.1418E+01  0.9954E+01
   3.960  0.1425E+01  0.9968E+01
   3.970  0.1431E+01  0.9982E+01
   3.980  0.1437E+01  0.9997E+01
   3.990  0.1442E+01  0.1001E+02
   4.000  0.1445E+01  0.1003E+02
   4.010  0.1448E+01  0.1004E+02
   4.020  0.1449E+01  0.1005E+02
   4.030  0.1450E+01  0.1007E+02
   4.040  0.1449E+01  0.1008E+02
   4.050  0.1447E+01  0.1010E+02
   4.060  0.1444E+01  0.1011E+02
   4.070  0.1440E+01  0.1013E+02
   4.080  0.1436E+01  0.1014E+02
   4.090  0.1431E+01  0.1016E+02
   4.100  0.1427E+01  0.1017E+02
   4.110  0.1423E+01  0.1018E+02
   4.120  0.1420E+01  0.1020E+02
   4.130  0.1417E+01  0.1021E+02
   4.140  0.1416E+01  0.1023E+02
   4.150  0.1416E+01  0.1024E+02
   4.160  0.1418E+01  0.1025E+02
   4.170  0.1421E+01  0.1027E+02
   4.180  0.1426E+01  0.1028E+02
   4.190  0.1433E+01  0.1030E+02
   4.200  0.1441E+01  0.1031E+02
   4.210  0.1451E+01  0.1033E+02
   4.220  0.1462E+01  0.1034E+02
   4.230  0.1473E+01  0.1036E+02
   4.240  0.1485E+01  0.1037E+02
   4.250  0.1497E+01  0.1039E+02
   4.260  0.1508E+01  0.1040E+02
   4.270  0.1519E+01  0.1042E+02
   4.280  0.1528E+01  0.1043E+02
   4.290  0.1537E+01  0.1045E+02
   4.300  0.1543E+01  0.1046E+02
   4.310  0.1549E+01  0.1048E+02
   4.320  0.1552E+01  0.1049E+02
   4.330  0.1554E+01  0.1051E+02
   4.340  0.1554E+01  0.1052E+02
   4.350  0.1553E+01  0.1054E+02
   4.360  0.1550E+01  0.1056E+02
   4.370  0.1546E+01  0.1057E+02
   4.380  0.1540E+01  0.1059E+02
   4.390  0.1534E+01  0.1060E+02
   4.400  0.1526E+01  0.1062E+02
   4.410  0.1519E+01  0.1063E+02
   4.420  0.1510E+01  0.1065E+02
   4.430  0.1502E+01  0.1066E+02
   4.440  0.1493E+01  0.1068E+02
   4.450  0.1486E+01  0.1069E+02
   4.460  0.1478E+01  0.1071E+02
   4.470  0.1472E+01  0.1072E+02
   4.480  0.1466E+01  0.1074E+02
   4.490  0.1462E+01  0.1075E+02
   4.500  0.1460E+01  0.1077E+02
   4.510  0.1459E+01  0.1078E+02
   4.520  0.1461E+01  0.1079E+02
   4.530  0.1464E+01  0.1081E+02
   4.540  0.1470E+01  0.1082E+02
   4.550  0.1478E+01  0.1084E+02
   4.560  0.1489E+01  0.1085E+02
   4.570  0.1502E+01  0.1087E+02
   4.580  0.1518E+01  0.1088E+02
   4.590  0.1536E+01  0.1090E+02
   4.600  0.1557E+01  0.1091E+02
   4.610  0.1579E+01  0.1093E+02
   4.620  0.1604E+01  0.1095E+02
   4.630  0.1631E+01  0.1096E+02
   4.640  0.1660E+01  0.1098E+02
   4.650  0.1690E+01  0.1100E+02
   4.660  0.1722E+01  0.1101E+02
   4.670  0.1754E+01  0.1103E+02
   4.680  0.1787E+01  0.1105E+02
   4.690  0.1819E+01  0.1107E+02
   4.700  0.1851E+01  0.1109E+02
   4.710  0.1882E+01  0.1110E+02
   4.720  0.1912E+01  0.1112E+02
   4.730  0.1939E+01  0.1114E+02
   4.740  0.1964E+01  0.1116E+02
   4.750  0.1985E+01  0.1118E+02
   4.760  0.2003E+01  0.1120E+02
   4.770  0.2017E+01  0.1122E+02
   4.780  0.2027E+01  0.1124E+02
   4.790  0.2033E+01  0.1126E+02
   4.800  0.2035E+01  0.1128E+02
   4.810  0.2033E+01  0.1130E+02
   4.820  0.2028E+01  0.1132E+02
   4.830  0.2020E+01  0.1134E+02
   4.840  0.2010E+01  0.1136E+02
   4.850  0.1999E+01  0.1138E+02
   4.860  0.1986E+01  0.1140E+02
   4.870  0.1974E+01  0.1142E+02
   4.880  0.1963E+01  0.1144E+02
   4.890  0.1953E+01  0.1146E+02
   4.900  0.1946E+01  0.1148E+02
   4.910  0.1942E+01  0.1150E+02
   4.920  0.1940E+01  0.1152E+02
   4.930  0.1943E+01  0.1154E+02
   4.940  0.1949E+01  0.1156E+02
   4.950  0.1959E+01  0.1158E+02
   4.960  0.1972E+01  0.1160E+02
   4.970  0.1988E+01  0.1162E+02
   4.980  0.2007E+01  0.1164E+02
   4.990  0.2027E+01  0.1166E+02
   5.000  0.2049E+01  0.1168E+02
   5.010  0.2072E+01  0.1170E+02
   5.020  0.2095E+01  0.1172E+02
   5.030  0.2117E+01  0.1174E+02
   5.040  0.2138E+01  0.1176E+02
   5.050  0.2157E+01  0.1179E+02
   5.060  0.2174E+01  0.1181E+02
   5.070  0.2188E+01  0.1183E+02
   5.080  0.2200E+01  0.1185E+02
   5.090  0.2210E+01  0.1187E+02
   5.100  0.2216E+01  0.1190E+02
   5.110  0.2221E+01  0.1192E+02
   5.120  0.2223E+01  0.1194E+02
   5.130  0.2223E+01  0.1196E+02
   5.140  0.2221E+01  0.1198E+02
   5.150  0.2218E+01  0.1201E+02
   5.160  0.2213E+01  0.1203E+02
   5.170  0.2208E+01  0.1205E+02
   5.180  0.2203E+01  0.1207E+02
   5.190  0.2198E+01  0.1210E+02
   5.200  0.2192E+01  0.1212E+02
   5.210  0.2187E+01  0.1214E+02
   5.220  0.2183E+01  0.1216E+02
   5.230  0.2180E+01  0.1218E+02
   5.240  0.2179E+01  0.1220E+02
   5.250  0.2179E+01  0.1223E+02
   5.260  0.2180E+01  0.1225E+02
   5.270  0.2184E+01  0.1227E+02
   5.280  0.2190E+01  0.1229E+02
   5.290  0.2199E+01  0.1231E+02
   5.300  0.2210E+01  0.1234E+02
   5.310  0.2224E+01  0.1236E+02
   5.320  0.2241E+01  0.1238E+02
   5.330  0.2260E+01  0.1240E+02
   5.340  0.2281E+01  0.1243E+02
   5.350  0.2304E+01  0.1245E+02
   5.360  0.2329E+01  0.1247E+02
   5.370  0.2354E+01  0.1250E+02
   5.380  0.2380E+01  0.1252E+02
   5.390  0.2406E+01  0.1254E+02
   5.400  0.2431E+01  0.1257E+02
   5.410  0.2455E+01  0.1259E+02
   5.420  0.2476E+01  0.1262E+02
   5.430  0.2495E+01  0.1264E+02
   5.440  0.2511E+01  0.1267E+02
   5.450  0.2523E+01  0.1269E+02
   5.460  0.2532E+01  0.1272E+02
   5.470  0.2538E+01  0.1274E+02
   5.480  0.2539E+01  0.1277E+02
   5.490  0.2538E+01  0.1279E+02
   5.500  0.2534E+01  0.1282E+02
   5.510  0.2528E+01  0.1284E+02
   5.520  0.2520E+01  0.1287E+02
   5.530  0.2510E+01  0.1289E+02
   5.540  0.2501E+01  0.1292E+02
   5.550  0.2491E+01  0.1294E+02
   5.560  0.2483E+01  0.1297E+02
   5.570  0.2476E+01  0.1299E+02
   5.580  0.2471E+01  0.1302E+02
   5.590  0.2469E+01  0.1304E+02
   5.600  0.2471E+01  0.1307E+02
   5.610  0.2476E+01  0.1309E+02
   5.620  0.2484E+01  0.1312E+02
   5.630  0.2497E+01  0.1314E+02
   5.640  0.2514E+01  0.1317E+02
   5.650  0.2535E+01  0.1319E+02
   5.660  0.2560E+01  0.1322E+02
   5.670  0.2588E+01  0.1325E+02
   5.680  0.2620E+01  0.1327E+02
   5.690  0.2654E+01  0.1330E+02
   5.700  0.2691E+01  0.1332E+02
   5.710  0.2729E+01  0.1335E+02
   5.720  0.2769E+01  0.1338E+02
   5.730  0.2809E+01  0.1341E+02
   5.740  0.2848E+01  0.1344E+02
   5.750  0.2887E+01  0.1347E+02
   5.760  0.2924E+01  0.1349E+02
   5.770  0.2958E+01  0.1352E+02
   5.780  0.2990E+01  0.1355E+02
   5.790  0.3018E+01  0.1358E+02
   5.800  0.3041E+01  0.1361E+02
   5.810  0.3060E+01  0.1365E+02
   5.820  0.3075E+01  0.1368E+02
   5.830  0.3084E+01  0.1371E+02
   5.840  0.3089E+01  0.1374E+02
   5.850  0.3088E+01  0.1377E+02
   5.860  0.3083E+01  0.1380E+02
   5.870  0.3074E+01  0.1383E+02
   5.880  0.3062E+01  0.1386E+02
   5.890  0.3046E+01  0.1389E+02
   5.900  0.3027E+01  0.1392E+02
   5.910  0.3007E+01  0.1395E+02
   5.920  0.2986E+01  0.1398E+02
   5.930  0.2964E+01  0.1401E+02
   5.940  0.2943E+01  0.1404E+02
   5.950  0.2923E+01  0.1407E+02
   5.960  0.2905E+01  0.1410E+02
   5.970  0.2888E+01  0.1413E+02
   5.980  0.2874E+01  0.1416E+02
   5.990  0.2862E+01  0.1418E+02
   6.000  0.2853E+01  0.1421E+02
   6.010  0.2845E+01  0.1424E+02
   6.020  0.2840E+01  0.1427E+02
   6.030  0.2837E+01  0.1430E+02
   6.040  0.2835E+01  0.1433E+02
   6.050  0.2833E+01  0.1436E+02
   6.060  0.2832E+01  0.1438E+02
   6.070  0.2830E+01  0.1441E+02
   6.080  0.2827E+01  0.1444E+02
   6.090  0.2822E+01  0.1447E+02
   6.100  0.2816E+01  0.1450E+02
   6.110  0.2807E+01  0.1452E+02
   6.120  0.2795E+01  0.1455E+02
   6.130  0.2781E+01  0.1458E+02
   6.140  0.2764E+01  0.1461E+02
   6.150  0.2745E+01  0.1464E+02
   6.160  0.2723E+01  0.1466E+02
   6.170  0.2699E+01  0.1469E+02
   6.180  0.2673E+01  0.1472E+02
   6.190  0.2646E+01  0.1474E+02
   6.200  0.2618E+01  0.1477E+02
   6.210  0.2590E+01  0.1479E+02
   6.220  0.2562E+01  0.1482E+02
   6.230  0.2535E+01  0.1485E+02
   6.240  0.2510E+01  0.1487E+02
   6.250  0.2486E+01  0.1490E+02
   6.260  0.2464E+01  0.1492E+02
   6.270  0.2445E+01  0.1494E+02
   6.280  0.2429E+01  0.1497E+02
   6.290  0.2416E+01  0.1499E+02
   6.300  0.2406E+01  0.1502E+02
   6.310  0.2400E+01  0.1504E+02
   6.320  0.2396E+01  0.1507E+02
   6.330  0.2395E+01  0.1509E+02
   6.340  0.2396E+01  0.1511E+02
   6.350  0.2400E+01  0.1514E+02
   6.360  0.2406E+01  0.1516E+02
   6.370  0.2413E+01  0.1519E+02
   6.380  0.2420E+01  0.1521E+02
   6.390  0.2429E+01  0.1523E+02
   6.400  0.2437E+01  0.1526E+02
   6.410  0.2444E+01  0.1528E+02
   6.420  0.2451E+01  0.1531E+02
   6.430  0.2456E+01  0.1533E+02
   6.440  0.2459E+01  0.1536E+02
   6.450  0.2461E+01  0.1538E+02
   6.460  0.2461E+01  0.1541E+02
   6.470  0.2459E+01  0.1543E+02
   6.480  0.2455E+01  0.1545E+02
   6.490  0.2449E+01  0.1548E+02
   6.500  0.2441E+01  0.1550E+02
   6.510  0.2432E+01  0.1553E+02
   6.520  0.2422E+01  0.1555E+02
   6.530  0.2411E+01  0.1558E+02
   6.540  0.2399E+01  0.1560E+02
   6.550  0.2387E+01  0.1562E+02
   6.560  0.2375E+01  0.1565E+02
   6.570  0.2363E+01  0.1567E+02
   6.580  0.2352E+01  0.1570E+02
   6.590  0.2342E+01  0.1572E+02
   6.600  0.2333E+01  0.1574E+02
   6.610  0.2324E+01  0.1577E+02
   6.620  0.2318E+01  0.1579E+02
   6.630  0.2312E+01  0.1581E+02
   6.640  0.2307E+01  0.1583E+02
   6.650  0.2304E+01  0.1586E+02
   6.660  0.2302E+01  0.1588E+02
   6.670  0.2302E+01  0.1590E+02
   6.680  0.2302E+01  0.1593E+02
   6.690  0.2304E+01  0.1595E+02
   6.700  0.2306E+01  0.1597E+02
   6.710  0.2310E+01  0.1600E+02
   6.720  0.2314E+01  0.1602E+02
   6.730  0.2320E+01  0.1604E+02
   6.740  0.2326E+01  0.1607E+02
   6.750  0.2333E+01  0.1609E+02
   6.760  0.2341E+01  0.1611E+02
   6.770  0.2350E+01  0.1614E+02
   6.780  0.2360E+01  0.1616E+02
   6.790  0.2369E+01  0.1618E+02
   6.800  0.2380E+01  0.1621E+02
   6.810  0.2390E+01  0.1623E+02
   6.820  0.2400E+01  0.1625E+02
   6.830  0.2409E+01  0.1628E+02
   6.840  0.2418E+01  0.1630E+02
   6.850  0.2425E+01  0.1633E+02
   6.860  0.2431E+01  0.1635E+02
   6.870  0.2435E+01  0.1638E+02
   6.880  0.2438E+01  0.1640E+02
   6.890  0.2439E+01  0.1642E+02
   6.900  0.2437E+01  0.1645E+02
   6.910  0.2435E+01  0.1647E+02
   6.920  0.2430E+01  0.1650E+02
   6.930  0.2424E+01  0.1652E+02
   6.940  0.2417E+01  0.1655E+02
   6.950  0.2409E+01  0.1657E+02
   6.960  0.2401E+01  0.1659E+02
   6.970  0.2392E+01  0.1662E+02
   6.980  0.2384E+01  0.1664E+02
   6.990  0.2376E+01  0.1667E+02
   7.000  0.2368E+01  0.1669E+02
   7.010  0.2362E+01  0.1671E+02
   7.020  0.2355E+01  0.1674E+02
   7.030  0.2350E+01  0.1676E+02
   7.040  0.2345E+01  0.1678E+02
   7.050  0.2341E+01  0.1681E+02
   7.060  0.2337E+01  0.1683E+02
   7.070  0.2334E+01  0.1685E+02
   7.080  0.2331E+01  0.1688E+02
   7.090  0.2328E+01  0.1690E+02
   7.100  0.2325E+01  0.1692E+02
   7.110  0.2323E+01  0.1695E+02
   7.120  0.2321E+01  0.1697E+02
   7.130  0.2319E+01  0.1699E+02
   7.140  0.2317E+01  0.1702E+02
   7.150  0.2316E+01  0.1704E+02
   7.160  0.2316E+01  0.1706E+02
   7.170  0.2316E+01  0.1709E+02
   7.180  0.2317E+01  0.1711E+02
   7.190  0.2318E+01  0.1713E+02
   7.200  0.2320E+01  0.1716E+02
   7.210  0.2322E+01  0.1718E+02
   7.220  0.2324E+01  0.1720E+02
   7.230  0.2327E+01  0.1722E+02
   7.240  0.2329E+01  0.1725E+02
   7.250  0.2331E+01  0.1727E+02
   7.260  0.2332E+01  0.1729E+02
   7.270  0.2331E+01  0.1732E+02
   7.280  0.2330E+01  0.1734E+02
   7.290  0.2327E+01  0.1736E+02
   7.300  0.2323E+01  0.1739E+02
   7.310  0.2318E+01  0.1741E+02
   7.320  0.2311E+01  0.1743E+02
   7.330  0.2303E+01  0.1746E+02
   7.340  0.2295E+01  0.1748E+02
   7.350  0.2286E+01  0.1750E+02
   7.360  0.2277E+01  0.1753E+02
   7.370  0.2268E+01  0.1755E+02
   7.380  0.2261E+01  0.1757E+02
   7.390  0.2254E+01  0.1759E+02
   7.400  0.2250E+01  0.1762E+02
   7.410  0.2248E+01  0.1764E+02
   7.420  0.2248E+01  0.1766E+02
   7.430  0.2251E+01  0.1768E+02
   7.440  0.2256E+01  0.1771E+02
   7.450  0.2265E+01  0.1773E+02
   7.460  0.2275E+01  0.1775E+02
   7.470  0.2288E+01  0.1777E+02
   7.480  0.2303E+01  0.1780E+02
   7.490  0.2319E+01  0.1782E+02
   7.500  0.2337E+01  0.1784E+02
   7.510  0.2356E+01  0.1787E+02
   7.520  0.2376E+01  0.1789E+02
   7.530  0.2397E+01  0.1792E+02
   7.540  0.2418E+01  0.1794E+02
   7.550  0.2439E+01  0.1796E+02
   7.560  0.2461E+01  0.1799E+02
   7.570  0.2484E+01  0.1801E+02
   7.580  0.2507E+01  0.1804E+02
   7.590  0.2531E+01  0.1806E+02
   7.600  0.2556E+01  0.1809E+02
   7.610  0.2581E+01  0.1812E+02
   7.620  0.2608E+01  0.1814E+02
   7.630  0.2635E+01  0.1817E+02
   7.640  0.2663E+01  0.1819E+02
   7.650  0.2692E+01  0.1822E+02
   7.660  0.2721E+01  0.1825E+02
   7.670  0.2750E+01  0.1828E+02
   7.680  0.2778E+01  0.1830E+02
   7.690  0.2805E+01  0.1833E+02
   7.700  0.2830E+01  0.1836E+02
   7.710  0.2854E+01  0.1839E+02
   7.720  0.2876E+01  0.1842E+02
   7.730  0.2896E+01  0.1845E+02
   7.740  0.2912E+01  0.1848E+02
   7.750  0.2927E+01  0.1850E+02
   7.760  0.2938E+01  0.1853E+02
   7.770  0.2947E+01  0.1856E+02
   7.780  0.2954E+01  0.1859E+02
   7.790  0.2958E+01  0.1862E+02
   7.800  0.2960E+01  0.1865E+02
   7.810  0.2961E+01  0.1868E+02
   7.820  0.2960E+01  0.1871E+02
   7.830  0.2957E+01  0.1874E+02
   7.840  0.2954E+01  0.1877E+02
   7.850  0.2950E+01  0.1880E+02
   7.860  0.2946E+01  0.1883E+02
   7.870  0.2941E+01  0.1886E+02
   7.880  0.2936E+01  0.1889E+02
   7.890  0.2930E+01  0.1892E+02
   7.900  0.2924E+01  0.1895E+02
   7.910  0.2918E+01  0.1898E+02
   7.920  0.2910E+01  0.1901E+02
   7.930  0.2902E+01  0.1903E+02
   7.940  0.2893E+01  0.1906E+02
   7.950  0.2883E+01  0.1909E+02
   7.960  0.2870E+01  0.1912E+02
   7.970  0.2856E+01  0.1915E+02
   7.980  0.2840E+01  0.1918E+02
   7.990  0.2822E+01  0.1921E+02
   8.000  0.2801E+01  0.1923E+02
   8.010  0.2778E+01  0.1926E+02
   8.020  0.2753E+01  0.1929E+02
   8.030  0.2726E+01  0.1932E+02
   8.040  0.2698E+01  0.1934E+02
   8.050  0.2668E+01  0.1937E+02
   8.060  0.2638E+01  0.1940E+02
   8.070  0.2608E+01  0.1942E+02
   8.080  0.2579E+01  0.1945E+02
   8.090  0.2551E+01  0.1947E+02
   8.100  0.2525E+01  0.1950E+02
   8.110  0.2502E+01  0.1952E+02
   8.120  0.2482E+01  0.1955E+02
   8.130  0.2464E+01  0.1957E+02
   8.140  0.2451E+01  0.1960E+02
   8.150  0.2441E+01  0.1962E+02
   8.160  0.2435E+01  0.1965E+02
   8.170  0.2433E+01  0.1967E+02
   8.180  0.2435E+01  0.1970E+02
   8.190  0.2439E+01  0.1972E+02
   8.200  0.2447E+01  0.1974E+02
   8.210  0.2457E+01  0.1977E+02
   8.220  0.2469E+01  0.1979E+02
   8.230  0.2483E+01  0.1982E+02
   8.240  0.2498E+01  0.1984E+02
   8.250  0.2513E+01  0.1987E+02
   8.260  0.2529E+01  0.1989E+02
   8.270  0.2544E+01  0.1992E+02
   8.280  0.2559E+01  0.1994E+02
   8.290  0.2574E+01  0.1997E+02
   8.300  0.2588E+01  0.2000E+02
   8.310  0.2601E+01  0.2002E+02
   8.320  0.2613E+01  0.2005E+02
   8.330  0.2624E+01  0.2007E+02
   8.340  0.2634E+01  0.2010E+02
   8.350  0.2644E+01  0.2013E+02
   8.360  0.2653E+01  0.2015E+02
   8.370  0.2661E+01  0.2018E+02
   8.380  0.2669E+01  0.2021E+02
   8.390  0.2676E+01  0.2023E+02
   8.400  0.2683E+01  0.2026E+02
   8.410  0.2689E+01  0.2029E+02
   8.420  0.2695E+01  0.2031E+02
   8.430  0.2700E+01  0.2034E+02
   8.440  0.2704E+01  0.2037E+02
   8.450  0.2708E+01  0.2040E+02
   8.460  0.2710E+01  0.2042E+02
   8.470  0.2712E+01  0.2045E+02
   8.480  0.2712E+01  0.2048E+02
   8.490  0.2711E+01  0.2050E+02
   8.500  0.2710E+01  0.2053E+02
   8.510  0.2707E+01  0.2056E+02
   8.520  0.2704E+01  0.2059E+02
   8.530  0.2701E+01  0.2061E+02
   8.540  0.2697E+01  0.2064E+02
   8.550  0.2694E+01  0.2067E+02
   8.560  0.2691E+01  0.2069E+02
   8.570  0.2689E+01  0.2072E+02
   8.580  0.2688E+01  0.2075E+02
   8.590  0.2689E+01  0.2077E+02
   8.600  0.2691E+01  0.2080E+02
   8.610  0.2695E+01  0.2083E+02
   8.620  0.2701E+01  0.2086E+02
   8.630  0.2709E+01  0.2088E+02
   8.640  0.2718E+01  0.2091E+02
   8.650  0.2729E+01  0.2094E+02
   8.660  0.2740E+01  0.2096E+02
   8.670  0.2753E+01  0.2099E+02
   8.680  0.2766E+01  0.2102E+02
   8.690  0.2778E+01  0.2105E+02
   8.700  0.2791E+01  0.2107E+02
   8.710  0.2802E+01  0.2110E+02
   8.720  0.2813E+01  0.2113E+02
   8.730  0.2821E+01  0.2116E+02
   8.740  0.2828E+01  0.2119E+02
   8.750  0.2833E+01  0.2122E+02
   8.760  0.2836E+01  0.2124E+02
   8.770  0.2837E+01  0.2127E+02
   8.780  0.2835E+01  0.2130E+02
   8.790  0.2832E+01  0.2133E+02
   8.800  0.2827E+01  0.2136E+02
   8.810  0.2820E+01  0.2139E+02
   8.820  0.2812E+01  0.2141E+02
   8.830  0.2802E+01  0.2144E+02
   8.840  0.2792E+01  0.2147E+02
   8.850  0.2780E+01  0.2150E+02
   8.860  0.2769E+01  0.2153E+02
   8.870  0.2757E+01  0.2155E+02
   8.880  0.2745E+01  0.2158E+02
   8.890  0.2732E+01  0.2161E+02
   8.900  0.2720E+01  0.2163E+02
   8.910  0.2708E+01  0.2166E+02
   8.920  0.2696E+01  0.2169E+02
   8.930  0.2685E+01  0.2172E+02
   8.940  0.2673E+01  0.2174E+02
   8.950  0.2662E+01  0.2177E+02
   8.960  0.2651E+01  0.2180E+02
   8.970  0.2641E+01  0.2182E+02
   8.980  0.2631E+01  0.2185E+02
   8.990  0.2622E+01  0.2187E+02
   9.000  0.2613E+01  0.2190E+02
   9.010  0.2605E+01  0.2193E+02
   9.020  0.2599E+01  0.2195E+02
   9.030  0.2593E+01  0.2198E+02
   9.040  0.2589E+01  0.2200E+02
   9.050  0.2587E+01  0.2203E+02
   9.060  0.2587E+01  0.2206E+02
   9.070  0.2589E+01  0.2208E+02
   9.080  0.2592E+01  0.2211E+02
   9.090  0.2598E+01  0.2213E+02
   9.100  0.2606E+01  0.2216E+02
   9.110  0.2615E+01  0.2219E+02
   9.120  0.2626E+01  0.2221E+02
   9.130  0.2638E+01  0.2224E+02
   9.140  0.2651E+01  0.2227E+02
   9.150  0.2664E+01  0.2229E+02
   9.160  0.2678E+01  0.2232E+02
   9.170  0.2691E+01  0.2235E+02
   9.180  0.2703E+01  0.2237E+02
   9.190  0.2715E+01  0.2240E+02
   9.200  0.2724E+01  0.2243E+02
   9.210  0.2732E+01  0.2245E+02
   9.220  0.2738E+01  0.2248E+02
   9.230  0.2742E+01  0.2251E+02
   9.240  0.2744E+01  0.2254E+02
   9.250  0.2743E+01  0.2256E+02
   9.260  0.2741E+01  0.2259E+02
   9.270  0.2736E+01  0.2262E+02
   9.280  0.2730E+01  0.2265E+02
   9.290  0.2723E+01  0.2267E+02
   9.300  0.2714E+01  0.2270E+02
   9.310  0.2704E+01  0.2273E+02
   9.320  0.2694E+01  0.2275E+02
   9.330  0.2683E+01  0.2278E+02
   9.340  0.2672E+01  0.2281E+02
   9.350  0.2661E+01  0.2283E+02
   9.360  0.2649E+01  0.2286E+02
   9.370  0.2637E+01  0.2289E+02
   9.380  0.2626E+01  0.2291E+02
   9.390  0.2614E+01  0.2294E+02
   9.400  0.2602E+01  0.2297E+02
   9.410  0.2591E+01  0.2299E+02
   9.420  0.2579E+01  0.2302E+02
   9.430  0.2567E+01  0.2304E+02
   9.440  0.2555E+01  0.2307E+02
   9.450  0.2544E+01  0.2309E+02
   9.460  0.2533E+01  0.2312E+02
   9.470  0.2522E+01  0.2314E+02
   9.480  0.2512E+01  0.2317E+02
   9.490  0.2503E+01  0.2320E+02
   9.500  0.2496E+01  0.2322E+02
   9.510  0.2490E+01  0.2324E+02
   9.520  0.2487E+01  0.2327E+02
   9.530  0.2486E+01  0.2329E+02
   9.540  0.2488E+01  0.2332E+02
   9.550  0.2493E+01  0.2334E+02
   9.560  0.2502E+01  0.2337E+02
   9.570  0.2513E+01  0.2339E+02
   9.580  0.2528E+01  0.2342E+02
   9.590  0.2546E+01  0.2345E+02
   9.600  0.2567E+01  0.2347E+02
   9.610  0.2591E+01  0.2350E+02
   9.620  0.2617E+01  0.2352E+02
   9.630  0.2644E+01  0.2355E+02
   9.640  0.2672E+01  0.2358E+02
   9.650  0.2700E+01  0.2360E+02
   9.660  0.2728E+01  0.2363E+02
   9.670  0.2755E+01  0.2366E+02
   9.680  0.2780E+01  0.2369E+02
   9.690  0.2803E+01  0.2371E+02
   9.700  0.2823E+01  0.2374E+02
   9.710  0.2841E+01  0.2377E+02
   9.720  0.2855E+01  0.2380E+02
   9.730  0.2866E+01  0.2383E+02
   9.740  0.2873E+01  0.2386E+02
   9.750  0.2877E+01  0.2389E+02
   9.760  0.2878E+01  0.2391E+02
   9.770  0.2876E+01  0.2394E+02
   9.780  0.2872E+01  0.2397E+02
   9.790  0.2864E+01  0.2400E+02
   9.800  0.2855E+01  0.2403E+02
   9.810  0.2845E+01  0.2406E+02
   9.820  0.2834E+01  0.2409E+02
   9.830  0.2821E+01  0.2411E+02
   9.840  0.2809E+01  0.2414E+02
   9.850  0.2797E+01  0.2417E+02
   9.860  0.2786E+01  0.2420E+02
   9.870  0.2776E+01  0.2423E+02
   9.880  0.2768E+01  0.2425E+02
   9.890  0.2761E+01  0.2428E+02
   9.900  0.2756E+01  0.2431E+02
   9.910  0.2753E+01  0.2434E+02
   9.920  0.2753E+01  0.2436E+02
   9.930  0.2755E+01  0.2439E+02
   9.940  0.2758E+01  0.2442E+02
   9.950  0.2763E+01  0.2445E+02
   9.960  0.2770E+01  0.2447E+02
   9.970  0.2778E+01  0.2450E+02
   9.980  0.2787E+01  0.2453E+02
   9.990  0.2796E+01  0.2456E+02
  10.000  0.2806E+01  0.2459E+02
  10.010  0.2815E+01  0.2461E+02
  10.020  0.2823E+01  0.2464E+02
  10.030  0.2831E+01  0.2467E+02
  10.040  0.2837E+01  0.2470E+02
  10.050  0.2843E+01  0.2473E+02
  10.060  0.2847E+01  0.2476E+02
  10.070  0.2851E+01  0.2478E+02
  10.080  0.2854E+01  0.2481E+02
  10.090  0.2857E+01  0.2484E+02
  10.100  0.2859E+01  0.2487E+02
  10.110  0.2862E+01  0.2490E+02
  10.120  0.2865E+01  0.2493E+02
  10.130  0.2868E+01  0.2496E+02
  10.140  0.2873E+01  0.2498E+02
  10.150  0.2879E+01  0.2501E+02
  10.160  0.2885E+01  0.2504E+02
  10.170  0.2893E+01  0.2507E+02
  10.180  0.2903E+01  0.2510E+02
  10.190  0.2913E+01  0.2513E+02
  10.200  0.2924E+01  0.2516E+02
  10.210  0.2935E+01  0.2519E+02
  10.220  0.2947E+01  0.2522E+02
  10.230  0.2959E+01  0.2525E+02
  10.240  0.2971E+01  0.2528E+02
  10.250  0.2982E+01  0.2531E+02
  10.260  0.2992E+01  0.2534E+02
  10.270  0.3001E+01  0.2537E+02
  10.280  0.3009E+01  0.2540E+02
  10.290  0.3015E+01  0.2543E+02
  10.300  0.3020E+01  0.2546E+02
  10.310  0.3023E+01  0.2549E+02
  10.320  0.3024E+01  0.2552E+02
  10.330  0.3023E+01  0.2555E+02
  10.340  0.3021E+01  0.2558E+02
  10.350  0.3017E+01  0.2561E+02
  10.360  0.3012E+01  0.2564E+02
  10.370  0.3005E+01  0.2567E+02
  10.380  0.2997E+01  0.2570E+02
  10.390  0.2988E+01  0.2573E+02
  10.400  0.2978E+01  0.2576E+02
  10.410  0.2967E+01  0.2579E+02
  10.420  0.2957E+01  0.2582E+02
  10.430  0.2947E+01  0.2585E+02
  10.440  0.2937E+01  0.2588E+02
  10.450  0.2928E+01  0.2590E+02
  10.460  0.2921E+01  0.2593E+02
  10.470  0.2916E+01  0.2596E+02
  10.480  0.2914E+01  0.2599E+02
  10.490  0.2914E+01  0.2602E+02
  10.500  0.2918E+01  0.2605E+02
  10.510  0.2925E+01  0.2608E+02
  10.520  0.2937E+01  0.2611E+02
  10.530  0.2952E+01  0.2614E+02
  10.540  0.2971E+01  0.2617E+02
  10.550  0.2995E+01  0.2620E+02
  10.560  0.3021E+01  0.2623E+02
  10.570  0.3051E+01  0.2626E+02
  10.580  0.3083E+01  0.2629E+02
  10.590  0.3117E+01  0.2632E+02
  10.600  0.3152E+01  0.2635E+02
  10.610  0.3186E+01  0.2638E+02
  10.620  0.3219E+01  0.2642E+02
  10.630  0.3250E+01  0.2645E+02
  10.640  0.3277E+01  0.2648E+02
  10.650  0.3300E+01  0.2652E+02
  10.660  0.3319E+01  0.2655E+02
  10.670  0.3332E+01  0.2658E+02
  10.680  0.3339E+01  0.2661E+02
  10.690  0.3340E+01  0.2665E+02
  10.700  0.3335E+01  0.2668E+02
  10.710  0.3324E+01  0.2671E+02
  10.720  0.3308E+01  0.2675E+02
  10.730  0.3287E+01  0.2678E+02
  10.740  0.3262E+01  0.2681E+02
  10.750  0.3233E+01  0.2685E+02
  10.760  0.3201E+01  0.2688E+02
  10.770  0.3168E+01  0.2691E+02
  10.780  0.3133E+01  0.2694E+02
  10.790  0.3097E+01  0.2697E+02
  10.800  0.3061E+01  0.2700E+02
  10.810  0.3025E+01  0.2703E+02
  10.820  0.2990E+01  0.2706E+02
  10.830  0.2956E+01  0.2709E+02
  10.840  0.2923E+01  0.2712E+02
  10.850  0.2890E+01  0.2715E+02
  10.860  0.2859E+01  0.2718E+02
  10.870  0.2828E+01  0.2721E+02
  10.880  0.2799E+01  0.2724E+02
  10.890  0.2770E+01  0.2726E+02
  10.900  0.2743E+01  0.2729E+02
  10.910  0.2718E+01  0.2732E+02
  10.920  0.2694E+01  0.2734E+02
  10.930  0.2673E+01  0.2737E+02
  10.940  0.2653E+01  0.2740E+02
  10.950  0.2637E+01  0.2742E+02
  10.960  0.2623E+01  0.2745E+02
  10.970  0.2613E+01  0.2748E+02
  10.980  0.2607E+01  0.2750E+02
  10.990  0.2605E+01  0.2753E+02
  11.000  0.2607E+01  0.2755E+02
  11.010  0.2614E+01  0.2758E+02
  11.020  0.2624E+01  0.2761E+02
  11.030  0.2638E+01  0.2763E+02
  11.040  0.2656E+01  0.2766E+02
  11.050  0.2676E+01  0.2769E+02
  11.060  0.2699E+01  0.2771E+02
  11.070  0.2724E+01  0.2774E+02
  11.080  0.2749E+01  0.2777E+02
  11.090  0.2775E+01  0.2780E+02
  11.100  0.2800E+01  0.2782E+02
  11.110  0.2824E+01  0.2785E+02
  11.120  0.2845E+01  0.2788E+02
  11.130  0.2864E+01  0.2791E+02
  11.140  0.2881E+01  0.2794E+02
  11.150  0.2894E+01  0.2797E+02
  11.160  0.2904E+01  0.2800E+02
  11.170  0.2911E+01  0.2803E+02
  11.180  0.2915E+01  0.2805E+02
  11.190  0.2917E+01  0.2808E+02
  11.200  0.2918E+01  0.2811E+02
  11.210  0.2917E+01  0.2814E+02
  11.220  0.2916E+01  0.2817E+02
  11.230  0.2915E+01  0.2820E+02
  11.240  0.2915E+01  0.2823E+02
  11.250  0.2916E+01  0.2826E+02
  11.260  0.2919E+01  0.2829E+02
  11.270  0.2924E+01  0.2832E+02
  11.280  0.2932E+01  0.2835E+02
  11.290  0.2941E+01  0.2838E+02
  11.300  0.2952E+01  0.2841E+02
  11.310  0.2965E+01  0.2843E+02
  11.320  0.2979E+01  0.2846E+02
  11.330  0.2994E+01  0.2849E+02
  11.340  0.3008E+01  0.2852E+02
  11.350  0.3022E+01  0.2855E+02
  11.360  0.3034E+01  0.2859E+02
  11.370  0.3045E+01  0.2862E+02
  11.380  0.3053E+01  0.2865E+02
  11.390  0.3059E+01  0.2868E+02
  11.400  0.3062E+01  0.2871E+02
  11.410  0.3063E+01  0.2874E+02
  11.420  0.3060E+01  0.2877E+02
  11.430  0.3056E+01  0.2880E+02
  11.440  0.3049E+01  0.2883E+02
  11.450  0.3041E+01  0.2886E+02
  11.460  0.3033E+01  0.2889E+02
  11.470  0.3024E+01  0.2892E+02
  11.480  0.3015E+01  0.2895E+02
  11.490  0.3008E+01  0.2898E+02
  11.500  0.3002E+01  0.2901E+02
  11.510  0.2998E+01  0.2904E+02
  11.520  0.2996E+01  0.2907E+02
  11.530  0.2997E+01  0.2910E+02
  11.540  0.3000E+01  0.2913E+02
  11.550  0.3006E+01  0.2916E+02
  11.560  0.3015E+01  0.2919E+02
  11.570  0.3025E+01  0.2922E+02
  11.580  0.3037E+01  0.2925E+02
  11.590  0.3050E+01  0.2928E+02
  11.600  0.3063E+01  0.2931E+02
  11.610  0.3076E+01  0.2934E+02
  11.620  0.3088E+01  0.2937E+02
  11.630  0.3099E+01  0.2941E+02
  11.640  0.3107E+01  0.2944E+02
  11.650  0.3114E+01  0.2947E+02
  11.660  0.3117E+01  0.2950E+02
  11.670  0.3117E+01  0.2953E+02
  11.680  0.3114E+01  0.2956E+02
  11.690  0.3108E+01  0.2959E+02
  11.700  0.3099E+01  0.2962E+02
  11.710  0.3086E+01  0.2965E+02
  11.720  0.3071E+01  0.2968E+02
  11.730  0.3054E+01  0.2972E+02
  11.740  0.3034E+01  0.2975E+02
  11.750  0.3014E+01  0.2978E+02
  11.760  0.2992E+01  0.2981E+02
  11.770  0.2970E+01  0.2984E+02
  11.780  0.2948E+01  0.2986E+02
  11.790  0.2927E+01  0.2989E+02
  11.800  0.2906E+01  0.2992E+02
  11.810  0.2888E+01  0.2995E+02
  11.820  0.2871E+01  0.2998E+02
  11.830  0.2856E+01  0.3001E+02
  11.840  0.2844E+01  0.3004E+02
  11.850  0.2834E+01  0.3007E+02
  11.860  0.2827E+01  0.3009E+02
  11.870  0.2821E+01  0.3012E+02
  11.880  0.2818E+01  0.3015E+02
  11.890  0.2817E+01  0.3018E+02
  11.900  0.2818E+01  0.3021E+02
  11.910  0.2820E+01  0.3024E+02
  11.920  0.2823E+01  0.3026E+02
  11.930  0.2827E+01  0.3029E+02
  11.940  0.2832E+01  0.3032E+02
  11.950  0.2836E+01  0.3035E+02
  11.960  0.2841E+01  0.3038E+02
  11.970  0.2846E+01  0.3041E+02
  11.980  0.2851E+01  0.3043E+02
  11.990  0.2855E+01  0.3046E+02
  12.000  0.2860E+01  0.3049E+02
  12.010  0.2864E+01  0.3052E+02
  12.020  0.2868E+01  0.3055E+02
  12.030  0.2872E+01  0.3058E+02
  12.040  0.2875E+01  0.3061E+02
  12.050  0.2879E+01  0.3063E+02
  12.060  0.2883E+01  0.3066E+02
  12.070  0.2886E+01  0.3069E+02
  12.080  0.2888E+01  0.3072E+02
  12.090  0.2891E+01  0.3075E+02
  12.100  0.2892E+01  0.3078E+02
  12.110  0.2892E+01  0.3081E+02
  12.120  0.2890E+01  0.3084E+02
  12.130  0.2887E+01  0.3087E+02
  12.140  0.2881E+01  0.3089E+02
  12.150  0.2874E+01  0.3092E+02
  12.160  0.2864E+01  0.3095E+02
  12.170  0.2853E+01  0.3098E+02
  12.180  0.2839E+01  0.3101E+02
  12.190  0.2823E+01  0.3104E+02
  12.200  0.2806E+01  0.3107E+02
  12.210  0.2787E+01  0.3109E+02
  12.220  0.2768E+01  0.3112E+02
  12.230  0.2748E+01  0.3115E+02
  12.240  0.2728E+01  0.3118E+02
  12.250  0.2710E+01  0.3120E+02
  12.260  0.2693E+01  0.3123E+02
  12.270  0.2677E+01  0.3126E+02
  12.280  0.2664E+01  0.3128E+02
  12.290  0.2654E+01  0.3131E+02
  12.300  0.2647E+01  0.3134E+02
  12.310  0.2643E+01  0.3136E+02
  12.320  0.2642E+01  0.3139E+02
  12.330  0.2645E+01  0.3142E+02
  12.340  0.2650E+01  0.3144E+02
  12.350  0.2658E+01  0.3147E+02
  12.360  0.2669E+01  0.3150E+02
  12.370  0.2682E+01  0.3152E+02
  12.380  0.2697E+01  0.3155E+02
  12.390  0.2713E+01  0.3158E+02
  12.400  0.2729E+01  0.3160E+02
  12.410  0.2745E+01  0.3163E+02
  12.420  0.2761E+01  0.3166E+02
  12.430  0.2776E+01  0.3169E+02
  12.440  0.2788E+01  0.3171E+02
  12.450  0.2799E+01  0.3174E+02
  12.460  0.2806E+01  0.3177E+02
  12.470  0.2811E+01  0.3180E+02
  12.480  0.2812E+01  0.3183E+02
  12.490  0.2809E+01  0.3185E+02
  12.500  0.2802E+01  0.3188E+02
  12.510  0.2791E+01  0.3191E+02
  12.520  0.2777E+01  0.3194E+02
  12.530  0.2758E+01  0.3197E+02
  12.540  0.2736E+01  0.3199E+02
  12.550  0.2711E+01  0.3202E+02
  12.560  0.2684E+01  0.3205E+02
  12.570  0.2654E+01  0.3207E+02
  12.580  0.2624E+01  0.3210E+02
  12.590  0.2593E+01  0.3213E+02
  12.600  0.2562E+01  0.3215E+02
  12.610  0.2533E+01  0.3218E+02
  12.620  0.2506E+01  0.3220E+02
  12.630  0.2482E+01  0.3223E+02
  12.640  0.2463E+01  0.3225E+02
  12.650  0.2448E+01  0.3228E+02
  12.660  0.2439E+01  0.3230E+02
  12.670  0.2435E+01  0.3232E+02
  12.680  0.2438E+01  0.3235E+02
  12.690  0.2447E+01  0.3237E+02
  12.700  0.2463E+01  0.3240E+02
  12.710  0.2484E+01  0.3242E+02
  12.720  0.2511E+01  0.3245E+02
  12.730  0.2543E+01  0.3247E+02
  12.740  0.2579E+01  0.3250E+02
  12.750  0.2618E+01  0.3253E+02
  12.760  0.2660E+01  0.3255E+02
  12.770  0.2703E+01  0.3258E+02
  12.780  0.2747E+01  0.3261E+02
  12.790  0.2790E+01  0.3263E+02
  12.800  0.2831E+01  0.3266E+02
  12.810  0.2871E+01  0.3269E+02
  12.820  0.2907E+01  0.3272E+02
  12.830  0.2940E+01  0.3275E+02
  12.840  0.2969E+01  0.3278E+02
  12.850  0.2994E+01  0.3281E+02
  12.860  0.3015E+01  0.3284E+02
  12.870  0.3032E+01  0.3287E+02
  12.880  0.3044E+01  0.3290E+02
  12.890  0.3053E+01  0.3293E+02
  12.900  0.3058E+01  0.3296E+02
  12.910  0.3061E+01  0.3299E+02
  12.920  0.3062E+01  0.3302E+02
  12.930  0.3061E+01  0.3305E+02
  12.940  0.3060E+01  0.3308E+02
  12.950  0.3059E+01  0.3311E+02
  12.960  0.3059E+01  0.3314E+02
  12.970  0.3060E+01  0.3318E+02
  12.980  0.3064E+01  0.3321E+02
  12.990  0.3070E+01  0.3324E+02
  13.000  0.3079E+01  0.3327E+02
  13.010  0.3091E+01  0.3330E+02
  13.020  0.3107E+01  0.3333E+02
  13.030  0.3126E+01  0.3336E+02
  13.040  0.3148E+01  0.3339E+02
  13.050  0.3172E+01  0.3342E+02
  13.060  0.3199E+01  0.3346E+02
  13.070  0.3227E+01  0.3349E+02
  13.080  0.3256E+01  0.3352E+02
  13.090  0.3286E+01  0.3355E+02
  13.100  0.3315E+01  0.3359E+02
  13.110  0.3343E+01  0.3362E+02
  13.120  0.3369E+01  0.3365E+02
  13.130  0.3393E+01  0.3369E+02
  13.140  0.3413E+01  0.3372E+02
  13.150  0.3431E+01  0.3376E+02
  13.160  0.3444E+01  0.3379E+02
  13.170  0.3453E+01  0.3383E+02
  13.180  0.3458E+01  0.3386E+02
  13.190  0.3459E+01  0.3389E+02
  13.200  0.3454E+01  0.3393E+02
  13.210  0.3446E+01  0.3396E+02
  13.220  0.3432E+01  0.3400E+02
  13.230  0.3415E+01  0.3403E+02
  13.240  0.3393E+01  0.3407E+02
  13.250  0.3368E+01  0.3410E+02
  13.260  0.3339E+01  0.3413E+02
  13.270  0.3307E+01  0.3417E+02
  13.280  0.3272E+01  0.3420E+02
  13.290  0.3236E+01  0.3423E+02
  13.300  0.3197E+01  0.3426E+02
  13.310  0.3158E+01  0.3429E+02
  13.320  0.3118E+01  0.3433E+02
  13.330  0.3078E+01  0.3436E+02
  13.340  0.3038E+01  0.3439E+02
  13.350  0.3000E+01  0.3442E+02
  13.360  0.2963E+01  0.3445E+02
  13.370  0.2927E+01  0.3448E+02
  13.380  0.2893E+01  0.3450E+02
  13.390  0.2862E+01  0.3453E+02
  13.400  0.2832E+01  0.3456E+02
  13.410  0.2804E+01  0.3459E+02
  13.420  0.2779E+01  0.3462E+02
  13.430  0.2755E+01  0.3465E+02
  13.440  0.2733E+01  0.3467E+02
  13.450  0.2713E+01  0.3470E+02
  13.460  0.2694E+01  0.3473E+02
  13.470  0.2676E+01  0.3475E+02
  13.480  0.2660E+01  0.3478E+02
  13.490  0.2644E+01  0.3481E+02
  13.500  0.2630E+01  0.3483E+02
  13.510  0.2617E+01  0.3486E+02
  13.520  0.2604E+01  0.3488E+02
  13.530  0.2593E+01  0.3491E+02
  13.540  0.2582E+01  0.3494E+02
  13.550  0.2571E+01  0.3496E+02
  13.560  0.2561E+01  0.3499E+02
  13.570  0.2551E+01  0.3501E+02
  13.580  0.2542E+01  0.3504E+02
  13.590  0.2532E+01  0.3506E+02
  13.600  0.2523E+01  0.3509E+02
  13.610  0.2513E+01  0.3511E+02
  13.620  0.2503E+01  0.3514E+02
  13.630  0.2492E+01  0.3516E+02
  13.640  0.2481E+01  0.3519E+02
  13.650  0.2470E+01  0.3521E+02
  13.660  0.2459E+01  0.3524E+02
  13.670  0.2447E+01  0.3526E+02
  13.680  0.2436E+01  0.3529E+02
  13.690  0.2426E+01  0.3531E+02
  13.700  0.2415E+01  0.3534E+02
  13.710  0.2406E+01  0.3536E+02
  13.720  0.2397E+01  0.3538E+02
  13.730  0.2389E+01  0.3541E+02
  13.740  0.2381E+01  0.3543E+02
  13.750  0.2374E+01  0.3546E+02
  13.760  0.2367E+01  0.3548E+02
  13.770  0.2360E+01  0.3550E+02
  13.780  0.2352E+01  0.3553E+02
  13.790  0.2342E+01  0.3555E+02
  13.800  0.2331E+01  0.3557E+02
  13.810  0.2318E+01  0.3560E+02
  13.820  0.2303E+01  0.3562E+02
  13.830  0.2285E+01  0.3564E+02
  13.840  0.2263E+01  0.3566E+02
  13.850  0.2239E+01  0.3569E+02
  13.860  0.2212E+01  0.3571E+02
  13.870  0.2181E+01  0.3573E+02
  13.880  0.2148E+01  0.3575E+02
  13.890  0.2112E+01  0.3577E+02
  13.900  0.2073E+01  0.3579E+02
  13.910  0.2034E+01  0.3581E+02
  13.920  0.1992E+01  0.3583E+02
  13.930  0.1950E+01  0.3585E+02
  13.940  0.1908E+01  0.3587E+02
  13.950  0.1866E+01  0.3589E+02
  13.960  0.1824E+01  0.3591E+02
  13.970  0.1783E+01  0.3593E+02
  13.980  0.1744E+01  0.3595E+02
  13.990  0.1706E+01  0.3596E+02
  14.000  0.1669E+01  0.3598E+02
  14.010  0.1635E+01  0.3600E+02
  14.020  0.1603E+01  0.3601E+02
  14.030  0.1572E+01  0.3603E+02
  14.040  0.1544E+01  0.3604E+02
  14.050  0.1518E+01  0.3606E+02
  14.060  0.1495E+01  0.3607E+02
  14.070  0.1474E+01  0.3609E+02
  14.080  0.1456E+01  0.3610E+02
  14.090  0.1439E+01  0.3612E+02
  14.100  0.1426E+01  0.3613E+02
  14.110  0.1414E+01  0.3614E+02
  14.120  0.1405E+01  0.3616E+02
  14.130  0.1398E+01  0.3617E+02
  14.140  0.1393E+01  0.3619E+02
  14.150  0.1389E+01  0.3620E+02
  14.160  0.1386E+01  0.3621E+02
  14.170  0.1384E+01  0.3623E+02
  14.180  0.1382E+01  0.3624E+02
  14.190  0.1380E+01  0.3626E+02
  14.200  0.1378E+01  0.3627E+02
  14.210  0.1374E+01  0.3628E+02
  14.220  0.1370E+01  0.3630E+02
  14.230  0.1364E+01  0.3631E+02
  14.240  0.1356E+01  0.3632E+02
  14.250  0.1346E+01  0.3634E+02
  14.260  0.1334E+01  0.3635E+02
  14.270  0.1321E+01  0.3636E+02
  14.280  0.1306E+01  0.3638E+02
  14.290  0.1290E+01  0.3639E+02
  14.300  0.1272E+01  0.3640E+02
  14.310  0.1254E+01  0.3642E+02
  14.320  0.1236E+01  0.3643E+02
  14.330  0.1218E+01  0.3644E+02
  14.340  0.1200E+01  0.3645E+02
  14.350  0.1184E+01  0.3646E+02
  14.360  0.1168E+01  0.3648E+02
  14.370  0.1153E+01  0.3649E+02
  14.380  0.1140E+01  0.3650E+02
  14.390  0.1128E+01  0.3651E+02
  14.400  0.1118E+01  0.3652E+02
  14.410  0.1110E+01  0.3653E+02
  14.420  0.1102E+01  0.3654E+02
  14.430  0.1096E+01  0.3655E+02
  14.440  0.1091E+01  0.3657E+02
  14.450  0.1086E+01  0.3658E+02
  14.460  0.1083E+01  0.3659E+02
  14.470  0.1080E+01  0.3660E+02
  14.480  0.1077E+01  0.3661E+02
  14.490  0.1075E+01  0.3662E+02
  14.500  0.1073E+01  0.3663E+02
  14.510  0.1071E+01  0.3664E+02
  14.520  0.1069E+01  0.3665E+02
  14.530  0.1067E+01  0.3666E+02
  14.540  0.1066E+01  0.3667E+02
  14.550  0.1064E+01  0.3668E+02
  14.560  0.1063E+01  0.3669E+02
  14.570  0.1061E+01  0.3670E+02
  14.580  0.1060E+01  0.3671E+02
  14.590  0.1059E+01  0.3673E+02
  14.600  0.1058E+01  0.3674E+02
  14.610  0.1057E+01  0.3675E+02
  14.620  0.1055E+01  0.3676E+02
  14.630  0.1054E+01  0.3677E+02
  14.640  0.1052E+01  0.3678E+02
  14.650  0.1050E+01  0.3679E+02
  14.660  0.1047E+01  0.3680E+02
  14.670  0.1045E+01  0.3681E+02
  14.680  0.1042E+01  0.3682E+02
  14.690  0.1038E+01  0.3683E+02
  14.700  0.1035E+01  0.3684E+02
  14.710  0.1031E+01  0.3685E+02
  14.720  0.1027E+01  0.3686E+02
  14.730  0.1023E+01  0.3687E+02
  14.740  0.1019E+01  0.3688E+02
  14.750  0.1014E+01  0.3689E+02
  14.760  0.1010E+01  0.3690E+02
  14.770  0.1006E+01  0.3691E+02
  14.780  0.1003E+01  0.3692E+02
  14.790  0.9994E+00  0.3693E+02
  14.800  0.9965E+00  0.3694E+02
  14.810  0.9941E+00  0.3695E+02
  14.820  0.9924E+00  0.3696E+02
  14.830  0.9913E+00  0.3697E+02
  14.840  0.9908E+00  0.3698E+02
  14.850  0.9912E+00  0.3699E+02
  14.860  0.9922E+00  0.3700E+02
  14.870  0.9940E+00  0.3701E+02
  14.880  0.9966E+00  0.3702E+02
  14.890  0.9999E+00  0.3703E+02
  14.900  0.1004E+01  0.3704E+02
  14.910  0.1008E+01  0.3705E+02
  14.920  0.1013E+01  0.3706E+02
  14.930  0.1019E+01  0.3707E+02
  14.940  0.1025E+01  0.3708E+02
  14.950  0.1030E+01  0.3709E+02
  14.960  0.1036E+01  0.3710E+02
  14.970  0.1042E+01  0.3711E+02
  14.980  0.1048E+01  0.3712E+02
  14.990  0.1054E+01  0.3713E+02
  15.000  0.1059E+01  0.3714E+02
  15.010  0.1063E+01  0.3716E+02
  15.020  0.1067E+01  0.3717E+02
  15.030  0.1071E+01  0.3718E+02
  15.040  0.1074E+01  0.3719E+02
  15.050  0.1076E+01  0.3720E+02
  15.060  0.1077E+01  0.3721E+02
  15.070  0.1078E+01  0.3722E+02
  15.080  0.1077E+01  0.3723E+02
  15.090  0.1076E+01  0.3724E+02
  15.100  0.1074E+01  0.3725E+02
  15.110  0.1072E+01  0.3726E+02
  15.120  0.1068E+01  0.3727E+02
  15.130  0.1063E+01  0.3728E+02
  15.140  0.1058E+01  0.3729E+02
  15.150  0.1052E+01  0.3731E+02
  15.160  0.1044E+01  0.3732E+02
  15.170  0.1036E+01  0.3733E+02
  15.180  0.1027E+01  0.3734E+02
  15.190  0.1016E+01  0.3735E+02
  15.200  0.1005E+01  0.3736E+02
  15.210  0.9924E+00  0.3737E+02
  15.220  0.9788E+00  0.3738E+02
  15.230  0.9641E+00  0.3739E+02
  15.240  0.9482E+00  0.3740E+02
  15.250  0.9312E+00  0.3740E+02
  15.260  0.9129E+00  0.3741E+02
  15.270  0.8936E+00  0.3742E+02
  15.280  0.8731E+00  0.3743E+02
  15.290  0.8516E+00  0.3744E+02
  15.300  0.8292E+00  0.3745E+02
  15.310  0.8061E+00  0.3746E+02
  15.320  0.7823E+00  0.3746E+02
  15.330  0.7581E+00  0.3747E+02
  15.340  0.7337E+00  0.3748E+02
  15.350  0.7093E+00  0.3749E+02
  15.360  0.6852E+00  0.3749E+02
  15.370  0.6616E+00  0.3750E+02
  15.380  0.6387E+00  0.3751E+02
  15.390  0.6167E+00  0.3751E+02
  15.400  0.5959E+00  0.3752E+02
  15.410  0.5763E+00  0.3752E+02
  15.420  0.5581E+00  0.3753E+02
  15.430  0.5413E+00  0.3754E+02
  15.440  0.5260E+00  0.3754E+02
  15.450  0.5123E+00  0.3755E+02
  15.460  0.5000E+00  0.3755E+02
  15.470  0.4892E+00  0.3756E+02
  15.480  0.4796E+00  0.3756E+02
  15.490  0.4712E+00  0.3756E+02
  15.500  0.4639E+00  0.3757E+02
  15.510  0.4573E+00  0.3757E+02
  15.520  0.4513E+00  0.3758E+02
  15.530  0.4458E+00  0.3758E+02
  15.540  0.4405E+00  0.3759E+02
  15.550  0.4352E+00  0.3759E+02
  15.560  0.4298E+00  0.3760E+02
  15.570  0.4240E+00  0.3760E+02
  15.580  0.4178E+00  0.3760E+02
  15.590  0.4111E+00  0.3761E+02
  15.600  0.4037E+00  0.3761E+02
  15.610  0.3957E+00  0.3762E+02
  15.620  0.3870E+00  0.3762E+02
  15.630  0.3777E+00  0.3762E+02
  15.640  0.3679E+00  0.3763E+02
  15.650  0.3576E+00  0.3763E+02
  15.660  0.3469E+00  0.3764E+02
  15.670  0.3360E+00  0.3764E+02
  15.680  0.3250E+00  0.3764E+02
  15.690  0.3140E+00  0.3764E+02
  15.700  0.3032E+00  0.3765E+02
  15.710  0.2926E+00  0.3765E+02
  15.720  0.2824E+00  0.3765E+02
  15.730  0.2727E+00  0.3766E+02
  15.740  0.2636E+00  0.3766E+02
  15.750  0.2550E+00  0.3766E+02
  15.760  0.2471E+00  0.3766E+02
  15.770  0.2399E+00  0.3767E+02
  15.780  0.2333E+00  0.3767E+02
  15.790  0.2274E+00  0.3767E+02
  15.800  0.2222E+00  0.3767E+02
  15.810  0.2176E+00  0.3768E+02
  15.820  0.2136E+00  0.3768E+02
  15.830  0.2101E+00  0.3768E+02
  15.840  0.2071E+00  0.3768E+02
  15.850  0.2046E+00  0.3768E+02
  15.860  0.2025E+00  0.3769E+02
  15.870  0.2007E+00  0.3769E+02
  15.880  0.1993E+00  0.3769E+02
  15.890  0.1980E+00  0.3769E+02
  15.900  0.1970E+00  0.3769E+02
  15.910  0.1961E+00  0.3770E+02
  15.920  0.1953E+00  0.3770E+02
  15.930  0.1946E+00  0.3770E+02
  15.940  0.1938E+00  0.3770E+02
  15.950  0.1929E+00  0.3770E+02
  15.960  0.1918E+00  0.3771E+02
  15.970  0.1905E+00  0.3771E+02
  15.980  0.1889E+00  0.3771E+02
  15.990  0.1870E+00  0.3771E+02
  16.000  0.1846E+00  0.3771E+02
  16.010  0.1818E+00  0.3771E+02
  16.020  0.1784E+00  0.3772E+02
  16.030  0.1746E+00  0.3772E+02
  16.040  0.1702E+00  0.3772E+02
  16.050  0.1653E+00  0.3772E+02
  16.060  0.1599E+00  0.3772E+02
  16.070  0.1540E+00  0.3772E+02
  16.080  0.1477E+00  0.3773E+02
  16.090  0.1412E+00  0.3773E+02
  16.100  0.1343E+00  0.3773E+02
  16.110  0.1273E+00  0.3773E+02
  16.120  0.1202E+00  0.3773E+02
  16.130  0.1130E+00  0.3773E+02
  16.140  0.1059E+00  0.3773E+02
  16.150  0.9893E-01  0.3773E+02
  16.160  0.9212E-01  0.3774E+02
  16.170  0.8553E-01  0.3774E+02
  16.180  0.7919E-01  0.3774E+02
  16.190  0.7314E-01  0.3774E+02
  16.200  0.6738E-01  0.3774E+02
  16.210  0.6193E-01  0.3774E+02
  16.220  0.5678E-01  0.3774E+02
  16.230  0.5193E-01  0.3774E+02
  16.240  0.4738E-01  0.3774E+02
  16.250  0.4310E-01  0.3774E+02
  16.260  0.3909E-01  0.3774E+02
  16.270  0.3533E-01  0.3774E+02
  16.280  0.3182E-01  0.3774E+02
  16.290  0.2853E-01  0.3774E+02
  16.300  0.2547E-01  0.3774E+02
  16.310  0.2263E-01  0.3774E+02
  16.320  0.1999E-01  0.3774E+02
  16.330  0.1756E-01  0.3774E+02
  16.340  0.1533E-01  0.3774E+02
  16.350  0.1329E-01  0.3774E+02
  16.360  0.1144E-01  0.3774E+02
  16.370  0.9778E-02  0.3774E+02
  16.380  0.8291E-02  0.3774E+02
  16.390  0.6974E-02  0.3774E+02
  16.400  0.5817E-02  0.3774E+02
  16.410  0.4810E-02  0.3774E+02
  16.420  0.3942E-02  0.3774E+02
  16.430  0.3202E-02  0.3774E+02
  16.440  0.2577E-02  0.3774E+02
  16.450  0.2054E-02  0.3774E+02
  16.460  0.1622E-02  0.3774E+02
  16.470  0.1268E-02  0.3774E+02
  16.480  0.9817E-03  0.3774E+02
  16.490  0.7525E-03  0.3774E+02
  16.500  0.5711E-03  0.3774E+02
  16.510  0.4290E-03  0.3774E+02
  16.520  0.3190E-03  0.3774E+02
  16.530  0.2347E-03  0.3774E+02
  16.540  0.1710E-03  0.3774E+02
  16.550  0.1232E-03  0.3774E+02
  16.560  0.8792E-04  0.3774E+02
  16.570  0.6206E-04  0.3774E+02
  16.580  0.4335E-04  0.3774E+02
  16.590  0.2996E-04  0.3774E+02
  16.600  0.2049E-04  0.3774E+02
  16.610  0.1386E-04  0.3774E+02
  16.620  0.9283E-05  0.3774E+02
  16.630  0.6149E-05  0.3774E+02
  16.640  0.4030E-05  0.3774E+02
  16.650  0.2613E-05  0.3774E+02
  16.660  0.1676E-05  0.3774E+02
  16.670  0.1064E-05  0.3774E+02
  16.680  0.6680E-06  0.3774E+02
  16.690  0.4150E-06  0.3774E+02
  16.700  0.2550E-06  0.3774E+02
  16.710  0.1551E-06  0.3774E+02
  16.720  0.9326E-07  0.3774E+02
  16.730  0.5550E-07  0.3774E+02
  16.740  0.3267E-07  0.3774E+02
  16.750  0.1903E-07  0.3774E+02
  16.760  0.1096E-07  0.3774E+02
  16.770  0.6248E-08  0.3774E+02
  16.780  0.3523E-08  0.3774E+02
  16.790  0.1965E-08  0.3774E+02
  16.800  0.1084E-08  0.3774E+02
  16.810  0.5919E-09  0.3774E+02
  16.820  0.3197E-09  0.3774E+02
  16.830  0.1708E-09  0.3774E+02
  16.840  0.9025E-10  0.3774E+02
  16.850  0.4719E-10  0.3774E+02
  16.860  0.2441E-10  0.3774E+02
  16.870  0.1249E-10  0.3774E+02
  16.880  0.6321E-11  0.3774E+02
  16.890  0.3165E-11  0.3774E+02
  16.900  0.1568E-11  0.3774E+02
  16.910  0.7683E-12  0.3774E+02
  16.920  0.3724E-12  0.3774E+02
  16.930  0.1786E-12  0.3774E+02
  16.940  0.8473E-13  0.3774E+02
  16.950  0.3976E-13  0.3774E+02
  16.960  0.1846E-13  0.3774E+02
  16.970  0.8479E-14  0.3774E+02
  16.980  0.3852E-14  0.3774E+02
  16.990  0.1732E-14  0.3774E+02
  17.000  0.7699E-15  0.3774E+02
  17.010  0.3386E-15  0.3774E+02
  17.020  0.1474E-15  0.3774E+02
  17.030  0.6343E-16  0.3774E+02
  17.040  0.2701E-16  0.3774E+02
  17.050  0.1138E-16  0.3774E+02
  17.060  0.4742E-17  0.3774E+02
  17.070  0.1955E-17  0.3774E+02
  17.080  0.7972E-18  0.3774E+02
  17.090  0.3216E-18  0.3774E+02
  17.100  0.1284E-18  0.3774E+02
  17.110  0.5068E-19  0.3774E+02
  17.120  0.1979E-19  0.3774E+02
  17.130  0.7648E-20  0.3774E+02
  17.140  0.2923E-20  0.3774E+02
  17.150  0.1105E-20  0.3774E+02
  17.160  0.4135E-21  0.3774E+02
  17.170  0.1530E-21  0.3774E+02
  17.180  0.5600E-22  0.3774E+02
  17.190  0.2028E-22  0.3774E+02
  17.200  0.7265E-23  0.3774E+02
  17.210  0.2575E-23  0.3774E+02
  17.220  0.9026E-24  0.3774E+02
  17.230  0.3130E-24  0.3774E+02
  17.240  0.1074E-24  0.3774E+02
  17.250  0.3645E-25  0.3774E+02
  17.260  0.1224E-25  0.3774E+02
  17.270  0.4065E-26  0.3774E+02
  17.280  0.1336E-26  0.3774E+02
  17.290  0.4341E-27  0.3774E+02
  17.300  0.1396E-27  0.3774E+02
  17.310  0.4440E-28  0.3774E+02
  17.320  0.1397E-28  0.3774E+02
  17.330  0.4349E-29  0.3774E+02
  17.340  0.1339E-29  0.3774E+02
  17.350  0.4080E-30  0.3774E+02
  17.360  0.1230E-30  0.3774E+02
  17.370  0.3666E-31  0.3774E+02
  17.380  0.1081E-31  0.3774E+02
  17.390  0.3154E-32  0.3774E+02
  17.400  0.9104E-33  0.3774E+02
  17.410  0.2599E-33  0.3774E+02
  17.420  0.7342E-34  0.3774E+02
  17.430  0.2051E-34  0.3774E+02
  17.440  0.5670E-35  0.3774E+02
  17.450  0.1550E-35  0.3774E+02
  17.460  0.4194E-36  0.3774E+02
  17.470  0.1122E-36  0.3774E+02
  17.480  0.2971E-37  0.3774E+02
  17.490  0.7780E-38  0.3774E+02
  17.500  0.2016E-38  0.3774E+02
  17.510  0.5165E-39  0.3774E+02
  17.520  0.1310E-39  0.3774E+02
  17.530  0.3284E-40  0.3774E+02
  17.540  0.8148E-41  0.3774E+02
  17.550  0.2000E-41  0.3774E+02
  17.560  0.4856E-42  0.3774E+02
  17.570  0.1166E-42  0.3774E+02
  17.580  0.2771E-43  0.3774E+02
  17.590  0.6514E-44  0.3774E+02
  17.600  0.1515E-44  0.3774E+02
  17.610  0.3484E-45  0.3774E+02
  17.620  0.7929E-46  0.3774E+02
  17.630  0.1785E-46  0.3774E+02
  17.640  0.3975E-47  0.3774E+02
  17.650  0.8757E-48  0.3774E+02
  17.660  0.1908E-48  0.3774E+02
  17.670  0.4115E-49  0.3774E+02
  17.680  0.8775E-50  0.3774E+02
  17.690  0.1851E-50  0.3774E+02
  17.700  0.3864E-51  0.3774E+02
  17.710  0.7979E-52  0.3774E+02
  17.720  0.1630E-52  0.3774E+02
  17.730  0.3293E-53  0.3774E+02
  17.740  0.6582E-54  0.3774E+02
  17.750  0.1302E-54  0.3774E+02
  17.760  0.2546E-55  0.3774E+02
  17.770  0.4927E-56  0.3774E+02
  17.780  0.9432E-57  0.3774E+02
  17.790  0.1786E-57  0.3774E+02
  17.800  0.3347E-58  0.3774E+02
  17.810  0.6202E-59  0.3774E+02
  17.820  0.1137E-59  0.3774E+02
  17.830  0.2062E-60  0.3774E+02
  17.840  0.3700E-61  0.3774E+02
  17.850  0.6567E-62  0.3774E+02
  17.860  0.1153E-62  0.3774E+02
  17.870  0.2003E-63  0.3774E+02
  17.880  0.3442E-64  0.3774E+02
  17.890  0.5850E-65  0.3774E+02
  17.900  0.9838E-66  0.3774E+02
  17.910  0.1637E-66  0.3774E+02
  17.920  0.2693E-67  0.3774E+02
  17.930  0.4384E-68  0.3774E+02
  17.940  0.7060E-69  0.3774E+02
  17.950  0.1125E-69  0.3774E+02
  17.960  0.1773E-70  0.3774E+02
  17.970  0.2764E-71  0.3774E+02
  17.980  0.4263E-72  0.3774E+02
  17.990  0.6504E-73  0.3774E+02
  18.000  0.9817E-74  0.3774E+02
  18.010  0.1466E-74  0.3774E+02
  18.020  0.2165E-75  0.3774E+02
  18.030  0.3164E-76  0.3774E+02
  18.040  0.4573E-77  0.3774E+02
  18.050  0.6540E-78  0.3774E+02
  18.060  0.9251E-79  0.3774E+02
  18.070  0.1295E-79  0.3774E+02
  18.080  0.1793E-80  0.3774E+02
  18.090  0.2457E-81  0.3774E+02
  18.100  0.3348E-82  0.3774E+02
  18.110  0.4686E-83  0.3774E+02
  18.120  0.8204E-84  0.3774E+02
  18.130  0.3070E-84  0.3774E+02
  18.140  0.2396E-84  0.3774E+02
  18.150  0.2308E-84  0.3774E+02
  18.160  0.2297E-84  0.3774E+02
  18.170  0.2295E-84  0.3774E+02
  18.180  0.2295E-84  0.3774E+02
  18.190  0.2295E-84  0.3774E+02
  18.200  0.2295E-84  0.3774E+02
  18.210  0.2295E-84  0.3774E+02
  18.220  0.2295E-84  0.3774E+02
  18.230  0.2295E-84  0.3774E+02
  18.240  0.2295E-84  0.3774E+02
  18.250  0.2295E-84  0.3774E+02
  18.260  0.2295E-84  0.3774E+02
  18.270  0.2295E-84  0.3774E+02
  18.280  0.2295E-84  0.3774E+02
  18.290  0.2295E-84  0.3774E+02
  18.300  0.2295E-84  0.3774E+02
  18.310  0.2295E-84  0.3774E+02
  18.320  0.2295E-84  0.3774E+02
  18.330  0.2295E-84  0.3774E+02
  18.340  0.2295E-84  0.3774E+02
  18.350  0.2295E-84  0.3774E+02
  18.360  0.2295E-84  0.3774E+02
  18.370  0.2295E-84  0.3774E+02
  18.380  0.2295E-84  0.3774E+02
  18.390  0.2295E-84  0.3774E+02
  18.400  0.2295E-84  0.3774E+02
  18.410  0.2295E-84  0.3774E+02
  18.420  0.2295E-84  0.3774E+02
  18.430  0.2295E-84  0.3774E+02
  18.440  0.2295E-84  0.3774E+02
  18.450  0.2295E-84  0.3774E+02
  18.460  0.2295E-84  0.3774E+02
  18.470  0.2295E-84  0.3774E+02
  18.480  0.2295E-84  0.3774E+02
  18.490  0.2295E-84  0.3774E+02
  18.500  0.2295E-84  0.3774E+02
  18.510  0.2295E-84  0.3774E+02
  18.520  0.2295E-84  0.3774E+02
  18.530  0.2295E-84  0.3774E+02
  18.540  0.2295E-84  0.3774E+02
  18.550  0.2295E-84  0.3774E+02
  18.560  0.2295E-84  0.3774E+02
  18.570  0.2295E-84  0.3774E+02
  18.580  0.2295E-84  0.3774E+02
  18.590  0.2295E-84  0.3774E+02
  18.600  0.2295E-84  0.3774E+02
  18.610  0.2295E-84  0.3774E+02
  18.620  0.2295E-84  0.3774E+02
  18.630  0.2295E-84  0.3774E+02
  18.640  0.2295E-84  0.3774E+02
  18.650  0.2295E-84  0.3774E+02
  18.660  0.2295E-84  0.3774E+02
  18.670  0.2295E-84  0.3774E+02
  18.680  0.2295E-84  0.3774E+02
  18.690  0.2295E-84  0.3774E+02
  18.700  0.2295E-84  0.3774E+02
  18.710  0.2295E-84  0.3774E+02
  18.720  0.2295E-84  0.3774E+02
  18.730  0.2295E-84  0.3774E+02
  18.740  0.2295E-84  0.3774E+02
  18.750  0.2295E-84  0.3774E+02
  18.760  0.2295E-84  0.3774E+02
  18.770  0.2295E-84  0.3774E+02
  18.780  0.2295E-84  0.3774E+02
  18.790  0.2295E-84  0.3774E+02
  18.800  0.2295E-84  0.3774E+02
  18.810  0.2295E-84  0.3774E+02
  18.820  0.2295E-84  0.3774E+02
  18.830  0.2295E-84  0.3774E+02
  18.840  0.2295E-84  0.3774E+02
  18.850  0.2295E-84  0.3774E+02
  18.860  0.2295E-84  0.3774E+02
  18.870  0.2295E-84  0.3774E+02
  18.880  0.2295E-84  0.3774E+02
  18.890  0.2295E-84  0.3774E+02
  18.900  0.2295E-84  0.3774E+02
  18.910  0.2295E-84  0.3774E+02
  18.920  0.2295E-84  0.3774E+02
  18.930  0.2295E-84  0.3774E+02
  18.940  0.2295E-84  0.3774E+02
  18.950  0.2295E-84  0.3774E+02
  18.960  0.2295E-84  0.3774E+02
  18.970  0.2295E-84  0.3774E+02
  18.980  0.2295E-84  0.3774E+02
  18.990  0.2295E-84  0.3774E+02
  19.000  0.2295E-84  0.3774E+02
  19.010  0.2295E-84  0.3774E+02
  19.020  0.2295E-84  0.3774E+02
  19.030  0.2295E-84  0.3774E+02
  19.040  0.2295E-84  0.3774E+02
  19.050  0.2295E-84  0.3774E+02
  19.060  0.2295E-84  0.3774E+02
  19.070  0.2295E-84  0.3774E+02
  19.080  0.2295E-84  0.3774E+02
  19.090  0.2295E-84  0.3774E+02
  19.100  0.2295E-84  0.3774E+02
  19.110  0.2295E-84  0.3774E+02
  19.120  0.2295E-84  0.3774E+02
  19.130  0.2295E-84  0.3774E+02
  19.140  0.2295E-84  0.3774E+02
  19.150  0.2295E-84  0.3774E+02
  19.160  0.2295E-84  0.3774E+02
  19.170  0.2295E-84  0.3774E+02
  19.180  0.2295E-84  0.3774E+02
  19.190  0.2295E-84  0.3774E+02
  19.200  0.2295E-84  0.3774E+02
  19.210  0.2295E-84  0.3774E+02
  19.220  0.2295E-84  0.3774E+02
  19.230  0.2295E-84  0.3774E+02
  19.240  0.2295E-84  0.3774E+02
  19.250  0.2295E-84  0.3774E+02
  19.260  0.2295E-84  0.3774E+02
  19.270  0.2295E-84  0.3774E+02
  19.280  0.2295E-84  0.3774E+02
  19.290  0.2295E-84  0.3774E+02
  19.300  0.2295E-84  0.3774E+02
  19.310  0.2295E-84  0.3774E+02
  19.320  0.2295E-84  0.3774E+02
  19.330  0.2295E-84  0.3774E+02
  19.340  0.2295E-84  0.3774E+02
  19.350  0.2295E-84  0.3774E+02
  19.360  0.2295E-84  0.3774E+02
  19.370  0.2295E-84  0.3774E+02
  19.380  0.2295E-84  0.3774E+02
  19.390  0.2295E-84  0.3774E+02
  19.400  0.2295E-84  0.3774E+02
  19.410  0.2295E-84  0.3774E+02
  19.420  0.2295E-84  0.3774E+02
  19.430  0.2295E-84  0.3774E+02
  19.440  0.2295E-84  0.3774E+02
  19.450  0.2295E-84  0.3774E+02
  19.460  0.2295E-84  0.3774E+02
  19.470  0.2295E-84  0.3774E+02
  19.480  0.2295E-84  0.3774E+02
  19.490  0.2295E-84  0.3774E+02
  19.500  0.2295E-84  0.3774E+02
  19.510  0.2295E-84  0.3774E+02
  19.520  0.2295E-84  0.3774E+02
  19.530  0.2295E-84  0.3774E+02
  19.540  0.2295E-84  0.3774E+02
  19.550  0.2295E-84  0.3774E+02
  19.560  0.2295E-84  0.3774E+02
  19.570  0.2295E-84  0.3774E+02
  19.580  0.2295E-84  0.3774E+02
  19.590  0.2295E-84  0.3774E+02
  19.600  0.2295E-84  0.3774E+02
  19.610  0.2295E-84  0.3774E+02
  19.620  0.2295E-84  0.3774E+02
  19.630  0.2295E-84  0.3774E+02
  19.640  0.2295E-84  0.3774E+02
  19.650  0.2295E-84  0.3774E+02
  19.660  0.2295E-84  0.3774E+02
  19.670  0.2295E-84  0.3774E+02
  19.680  0.2295E-84  0.3774E+02
  19.690  0.2295E-84  0.3774E+02
  19.700  0.2295E-84  0.3774E+02
  19.710  0.2295E-84  0.3774E+02
  19.720  0.2295E-84  0.3774E+02
  19.730  0.2295E-84  0.3774E+02
  19.740  0.2295E-84  0.3774E+02
  19.750  0.2295E-84  0.3774E+02
  19.760  0.2295E-84  0.3774E+02
  19.770  0.2295E-84  0.3774E+02
  19.780  0.2295E-84  0.3774E+02
  19.790  0.2295E-84  0.3774E+02
  19.800  0.2295E-84  0.3774E+02
  19.810  0.2295E-84  0.3774E+02
  19.820  0.2295E-84  0.3774E+02
  19.830  0.2295E-84  0.3774E+02
  19.840  0.2295E-84  0.3774E+02
  19.850  0.2295E-84  0.3774E+02
  19.860  0.2295E-84  0.3774E+02
  19.870  0.2295E-84  0.3774E+02
  19.880  0.2295E-84  0.3774E+02
  19.890  0.2295E-84  0.3774E+02
  19.900  0.2295E-84  0.3774E+02
  19.910  0.2295E-84  0.3774E+02
  19.920  0.2295E-84  0.3774E+02
  19.930  0.2295E-84  0.3774E+02
  19.940  0.2295E-84  0.3774E+02
  19.950  0.2295E-84  0.3774E+02
  19.960  0.2295E-84  0.3774E+02
  19.970  0.2295E-84  0.3774E+02
  19.980  0.2295E-84  0.3774E+02
  19.990  0.2295E-84  0.3774E+02
  20.000  0.2295E-84  0.3774E+02
  20.010  0.2295E-84  0.3774E+02
  20.020  0.2295E-84  0.3774E+02
  20.030  0.2295E-84  0.3774E+02
  20.040  0.2295E-84  0.3774E+02
  20.050  0.2295E-84  0.3774E+02
  20.060  0.2295E-84  0.3774E+02
  20.070  0.2295E-84  0.3774E+02
  20.080  0.2295E-84  0.3774E+02
  20.090  0.2295E-84  0.3774E+02
  20.100  0.2295E-84  0.3774E+02
  20.110  0.2295E-84  0.3774E+02
  20.120  0.2295E-84  0.3774E+02
  20.130  0.2295E-84  0.3774E+02
  20.140  0.2295E-84  0.3774E+02
  20.150  0.2295E-84  0.3774E+02
  20.160  0.2295E-84  0.3774E+02
  20.170  0.2295E-84  0.3774E+02
  20.180  0.2295E-84  0.3774E+02
  20.190  0.2295E-84  0.3774E+02
  20.200  0.2295E-84  0.3774E+02
  20.210  0.2295E-84  0.3774E+02
  20.220  0.2295E-84  0.3774E+02
  20.230  0.2295E-84  0.3774E+02
  20.240  0.2295E-84  0.3774E+02
  20.250  0.2295E-84  0.3774E+02
  20.260  0.2295E-84  0.3774E+02
  20.270  0.2295E-84  0.3774E+02
  20.280  0.2295E-84  0.3774E+02
  20.290  0.2295E-84  0.3774E+02
  20.300  0.2295E-84  0.3774E+02
  20.310  0.2295E-84  0.3774E+02
  20.320  0.2295E-84  0.3774E+02
  20.330  0.2295E-84  0.3774E+02
  20.340  0.2295E-84  0.3774E+02
  20.350  0.2295E-84  0.3774E+02
  20.360  0.2295E-84  0.3774E+02
  20.370  0.2295E-84  0.3774E+02
  20.380  0.2295E-84  0.3774E+02
  20.390  0.2295E-84  0.3774E+02
  20.400  0.2295E-84  0.3774E+02
  20.410  0.2295E-84  0.3774E+02
  20.420  0.2295E-84  0.3774E+02
  20.430  0.2295E-84  0.3774E+02
  20.440  0.2295E-84  0.3774E+02
  20.450  0.2295E-84  0.3774E+02
  20.460  0.2295E-84  0.3774E+02
  20.470  0.2295E-84  0.3774E+02
  20.480  0.2295E-84  0.3774E+02
  20.490  0.2295E-84  0.3774E+02
  20.500  0.2295E-84  0.3774E+02
  20.510  0.2295E-84  0.3774E+02
  20.520  0.2295E-84  0.3774E+02
  20.530  0.2295E-84  0.3774E+02
  20.540  0.2295E-84  0.3774E+02
  20.550  0.2295E-84  0.3774E+02
  20.560  0.2295E-84  0.3774E+02
  20.570  0.2295E-84  0.3774E+02
  20.580  0.2295E-84  0.3774E+02
  20.590  0.2295E-84  0.3774E+02
  20.600  0.2295E-84  0.3774E+02
  20.610  0.2295E-84  0.3774E+02
  20.620  0.2295E-84  0.3774E+02
  20.630  0.2295E-84  0.3774E+02
  20.640  0.2295E-84  0.3774E+02
  20.650  0.2295E-84  0.3774E+02
  20.660  0.2295E-84  0.3774E+02
  20.670  0.2295E-84  0.3774E+02
  20.680  0.2295E-84  0.3774E+02
  20.690  0.2295E-84  0.3774E+02
  20.700  0.2295E-84  0.3774E+02
  20.710  0.2295E-84  0.3774E+02
  20.720  0.2295E-84  0.3774E+02
  20.730  0.2295E-84  0.3774E+02
  20.740  0.2295E-84  0.3774E+02
  20.750  0.2295E-84  0.3774E+02
  20.760  0.2295E-84  0.3774E+02
  20.770  0.2295E-84  0.3774E+02
  20.780  0.2295E-84  0.3774E+02
  20.790  0.2295E-84  0.3774E+02
  20.800  0.2295E-84  0.3774E+02
  20.810  0.2295E-84  0.3774E+02
  20.820  0.2295E-84  0.3774E+02
  20.830  0.2295E-84  0.3774E+02
  20.840  0.2295E-84  0.3774E+02
  20.850  0.2295E-84  0.3774E+02
  20.860  0.2295E-84  0.3774E+02
  20.870  0.2295E-84  0.3774E+02
  20.880  0.2295E-84  0.3774E+02
  20.890  0.2295E-84  0.3774E+02
  20.900  0.2295E-84  0.3774E+02
  20.910  0.2295E-84  0.3774E+02
  20.920  0.2295E-84  0.3774E+02
  20.930  0.2295E-84  0.3774E+02
  20.940  0.2295E-84  0.3774E+02
  20.950  0.2295E-84  0.3774E+02
  20.960  0.2295E-84  0.3774E+02
  20.970  0.2295E-84  0.3774E+02
  20.980  0.2295E-84  0.3774E+02
  20.990  0.2295E-84  0.3774E+02
  21.000  0.2295E-84  0.3774E+02
  21.010  0.2295E-84  0.3774E+02
  21.020  0.2295E-84  0.3774E+02
  21.030  0.2295E-84  0.3774E+02
  21.040  0.2295E-84  0.3774E+02
  21.050  0.2295E-84  0.3774E+02
  21.060  0.2295E-84  0.3774E+02
  21.070  0.2295E-84  0.3774E+02
  21.080  0.2295E-84  0.3774E+02
  21.090  0.2295E-84  0.3774E+02
  21.100  0.2295E-84  0.3774E+02
  21.110  0.2295E-84  0.3774E+02
  21.120  0.2295E-84  0.3774E+02
  21.130  0.2295E-84  0.3774E+02
  21.140  0.2295E-84  0.3774E+02
  21.150  0.2295E-84  0.3774E+02
  21.160  0.2295E-84  0.3774E+02
  21.170  0.2295E-84  0.3774E+02
  21.180  0.2295E-84  0.3774E+02
  21.190  0.2295E-84  0.3774E+02
  21.200  0.2295E-84  0.3774E+02
  21.210  0.2295E-84  0.3774E+02
  21.220  0.2295E-84  0.3774E+02
  21.230  0.2295E-84  0.3774E+02
  21.240  0.2295E-84  0.3774E+02
  21.250  0.2295E-84  0.3774E+02
  21.260  0.2295E-84  0.3774E+02
  21.270  0.2295E-84  0.3774E+02
  21.280  0.2295E-84  0.3774E+02
  21.290  0.2295E-84  0.3774E+02
  21.300  0.2295E-84  0.3774E+02
  21.310  0.2295E-84  0.3774E+02
  21.320  0.2295E-84  0.3774E+02
  21.330  0.2295E-84  0.3774E+02
  21.340  0.2295E-84  0.3774E+02
  21.350  0.2295E-84  0.3774E+02
  21.360  0.2295E-84  0.3774E+02
  21.370  0.2295E-84  0.3774E+02
  21.380  0.2295E-84  0.3774E+02
  21.390  0.2295E-84  0.3774E+02
  21.400  0.2295E-84  0.3774E+02
  21.410  0.2295E-84  0.3774E+02
  21.420  0.2295E-84  0.3774E+02
  21.430  0.2295E-84  0.3774E+02
  21.440  0.2295E-84  0.3774E+02
  21.450  0.2295E-84  0.3774E+02
  21.460  0.2295E-84  0.3774E+02
  21.470  0.2295E-84  0.3774E+02
  21.480  0.2295E-84  0.3774E+02
  21.490  0.2295E-84  0.3774E+02
  21.500  0.2295E-84  0.3774E+02
  21.510  0.2295E-84  0.3774E+02
  21.520  0.2295E-84  0.3774E+02
  21.530  0.2295E-84  0.3774E+02
  21.540  0.2295E-84  0.3774E+02
  21.550  0.2295E-84  0.3774E+02
  21.560  0.2295E-84  0.3774E+02
  21.570  0.2295E-84  0.3774E+02
  21.580  0.2295E-84  0.3774E+02
  21.590  0.2295E-84  0.3774E+02
  21.600  0.2295E-84  0.3774E+02
  21.610  0.2295E-84  0.3774E+02
  21.620  0.2295E-84  0.3774E+02
  21.630  0.2295E-84  0.3774E+02
  21.640  0.2295E-84  0.3774E+02
  21.650  0.2295E-84  0.3774E+02
  21.660  0.2295E-84  0.3774E+02
  21.670  0.2295E-84  0.3774E+02
  21.680  0.2295E-84  0.3774E+02
  21.690  0.2295E-84  0.3774E+02
  21.700  0.2295E-84  0.3774E+02
  21.710  0.2295E-84  0.3774E+02
  21.720  0.2295E-84  0.3774E+02
  21.730  0.2295E-84  0.3774E+02
  21.740  0.2295E-84  0.3774E+02
  21.750  0.2295E-84  0.3774E+02
  21.760  0.2295E-84  0.3774E+02
  21.770  0.2295E-84  0.3774E+02
  21.780  0.2295E-84  0.3774E+02
  21.790  0.2295E-84  0.3774E+02
  21.800  0.2295E-84  0.3774E+02
  21.810  0.2295E-84  0.3774E+02
  21.820  0.2295E-84  0.3774E+02
  21.830  0.2295E-84  0.3774E+02
  21.840  0.2295E-84  0.3774E+02
  21.850  0.2295E-84  0.3774E+02
  21.860  0.2295E-84  0.3774E+02
  21.870  0.2295E-84  0.3774E+02
  21.880  0.2295E-84  0.3774E+02
  21.890  0.2295E-84  0.3774E+02
  21.900  0.2295E-84  0.3774E+02
  21.910  0.2295E-84  0.3774E+02
  21.920  0.2295E-84  0.3774E+02
  21.930  0.2295E-84  0.3774E+02
  21.940  0.2295E-84  0.3774E+02
  21.950  0.2295E-84  0.3774E+02
  21.960  0.2295E-84  0.3774E+02
  21.970  0.2295E-84  0.3774E+02
  21.980  0.2295E-84  0.3774E+02
  21.990  0.2295E-84  0.3774E+02
  22.000  0.2295E-84  0.3774E+02
  22.010  0.2295E-84  0.3774E+02
  22.020  0.2295E-84  0.3774E+02
  22.030  0.2295E-84  0.3774E+02
  22.040  0.2295E-84  0.3774E+02
  22.050  0.2295E-84  0.3774E+02
  22.060  0.2295E-84  0.3774E+02
  22.070  0.2295E-84  0.3774E+02
  22.080  0.2295E-84  0.3774E+02
  22.090  0.2295E-84  0.3774E+02
  22.100  0.2295E-84  0.3774E+02
  22.110  0.2295E-84  0.3774E+02
  22.120  0.2295E-84  0.3774E+02
  22.130  0.2295E-84  0.3774E+02
  22.140  0.2295E-84  0.3774E+02
  22.150  0.2295E-84  0.3774E+02
  22.160  0.2295E-84  0.3774E+02
  22.170  0.2295E-84  0.3774E+02
  22.180  0.2295E-84  0.3774E+02
  22.190  0.2295E-84  0.3774E+02
  22.200  0.2295E-84  0.3774E+02
  22.210  0.2295E-84  0.3774E+02
  22.220  0.2295E-84  0.3774E+02
  22.230  0.2295E-84  0.3774E+02
  22.240  0.2295E-84  0.3774E+02
  22.250  0.2295E-84  0.3774E+02
  22.260  0.2295E-84  0.3774E+02
  22.270  0.2295E-84  0.3774E+02
  22.280  0.2295E-84  0.3774E+02
  22.290  0.2295E-84  0.3774E+02
  22.300  0.2295E-84  0.3774E+02
  22.310  0.2295E-84  0.3774E+02
  22.320  0.2295E-84  0.3774E+02
  22.330  0.2295E-84  0.3774E+02
  22.340  0.2295E-84  0.3774E+02
  22.350  0.2295E-84  0.3774E+02
  22.360  0.2295E-84  0.3774E+02
  22.370  0.2295E-84  0.3774E+02
  22.380  0.2295E-84  0.3774E+02
  22.390  0.2295E-84  0.3774E+02
  22.400  0.2295E-84  0.3774E+02
  22.410  0.2295E-84  0.3774E+02
  22.420  0.2295E-84  0.3774E+02
  22.430  0.2295E-84  0.3774E+02
  22.440  0.2295E-84  0.3774E+02
  22.450  0.2295E-84  0.3774E+02
  22.460  0.2295E-84  0.3774E+02
  22.470  0.2295E-84  0.3774E+02
  22.480  0.2295E-84  0.3774E+02
  22.490  0.2295E-84  0.3774E+02
  22.500  0.2295E-84  0.3774E+02
  22.510  0.2295E-84  0.3774E+02
  22.520  0.2295E-84  0.3774E+02
  22.530  0.2295E-84  0.3774E+02
  22.540  0.2295E-84  0.3774E+02
  22.550  0.2295E-84  0.3774E+02
  22.560  0.2295E-84  0.3774E+02
  22.570  0.2295E-84  0.3774E+02
  22.580  0.2295E-84  0.3774E+02
  22.590  0.2295E-84  0.3774E+02
  22.600  0.2295E-84  0.3774E+02
  22.610  0.2295E-84  0.3774E+02
  22.620  0.2295E-84  0.3774E+02
  22.630  0.2295E-84  0.3774E+02
  22.640  0.2295E-84  0.3774E+02
  22.650  0.2295E-84  0.3774E+02
  22.660  0.2295E-84  0.3774E+02
  22.670  0.2295E-84  0.3774E+02
  22.680  0.2295E-84  0.3774E+02
  22.690  0.2295E-84  0.3774E+02
  22.700  0.2295E-84  0.3774E+02
  22.710  0.2295E-84  0.3774E+02
  22.720  0.2295E-84  0.3774E+02
  22.730  0.2295E-84  0.3774E+02
  22.740  0.2295E-84  0.3774E+02
  22.750  0.2295E-84  0.3774E+02
  22.760  0.2295E-84  0.3774E+02
  22.770  0.2295E-84  0.3774E+02
  22.780  0.2295E-84  0.3774E+02
  22.790  0.2295E-84  0.3774E+02
  22.800  0.2295E-84  0.3774E+02
  22.810  0.2295E-84  0.3774E+02
  22.820  0.2295E-84  0.3774E+02
  22.830  0.2295E-84  0.3774E+02
  22.840  0.2295E-84  0.3774E+02
  22.850  0.2295E-84  0.3774E+02
  22.860  0.2295E-84  0.3774E+02
  22.870  0.2295E-84  0.3774E+02
  22.880  0.2295E-84  0.3774E+02
  22.890  0.2295E-84  0.3774E+02
  22.900  0.2295E-84  0.3774E+02
  22.910  0.2295E-84  0.3774E+02
  22.920  0.2295E-84  0.3774E+02
  22.930  0.2295E-84  0.3774E+02
  22.940  0.2295E-84  0.3774E+02
  22.950  0.2295E-84  0.3774E+02
  22.960  0.2295E-84  0.3774E+02
  22.970  0.2295E-84  0.3774E+02
  22.980  0.2295E-84  0.3774E+02
  22.990  0.2295E-84  0.3774E+02
  23.000  0.2295E-84  0.3774E+02
  23.010  0.2295E-84  0.3774E+02
  23.020  0.2295E-84  0.3774E+02
  23.030  0.2295E-84  0.3774E+02
  23.040  0.2295E-84  0.3774E+02
  23.050  0.2295E-84  0.3774E+02
  23.060  0.2295E-84  0.3774E+02
  23.070  0.2295E-84  0.3774E+02
  23.080  0.2295E-84  0.3774E+02
  23.090  0.2295E-84  0.3774E+02
  23.100  0.2295E-84  0.3774E+02
  23.110  0.2295E-84  0.3774E+02
  23.120  0.2295E-84  0.3774E+02
  23.130  0.2295E-84  0.3774E+02
  23.140  0.2295E-84  0.3774E+02
  23.150  0.2295E-84  0.3774E+02
  23.160  0.2295E-84  0.3774E+02
  23.170  0.2295E-84  0.3774E+02
  23.180  0.2295E-84  0.3774E+02
  23.190  0.2295E-84  0.3774E+02
  23.200  0.2295E-84  0.3774E+02
  23.210  0.2295E-84  0.3774E+02
  23.220  0.2295E-84  0.3774E+02
  23.230  0.2295E-84  0.3774E+02
  23.240  0.2295E-84  0.3774E+02
  23.250  0.2295E-84  0.3774E+02
  23.260  0.2295E-84  0.3774E+02
  23.270  0.2295E-84  0.3774E+02
  23.280  0.2295E-84  0.3774E+02
  23.290  0.2295E-84  0.3774E+02
  23.300  0.2295E-84  0.3774E+02
  23.310  0.2295E-84  0.3774E+02
  23.320  0.2295E-84  0.3774E+02
  23.330  0.2295E-84  0.3774E+02
  23.340  0.2295E-84  0.3774E+02
  23.350  0.2295E-84  0.3774E+02
  23.360  0.2295E-84  0.3774E+02
  23.370  0.2295E-84  0.3774E+02
  23.380  0.2295E-84  0.3774E+02
  23.390  0.2295E-84  0.3774E+02
  23.400  0.2295E-84  0.3774E+02
  23.410  0.2295E-84  0.3774E+02
  23.420  0.2295E-84  0.3774E+02
  23.430  0.2295E-84  0.3774E+02
  23.440  0.2295E-84  0.3774E+02
  23.450  0.2295E-84  0.3774E+02
  23.460  0.2295E-84  0.3774E+02
  23.470  0.2295E-84  0.3774E+02
  23.480  0.2295E-84  0.3774E+02
  23.490  0.2295E-84  0.3774E+02
  23.500  0.2295E-84  0.3774E+02
  23.510  0.2295E-84  0.3774E+02
  23.520  0.2295E-84  0.3774E+02
  23.530  0.2295E-84  0.3774E+02
  23.540  0.2295E-84  0.3774E+02
  23.550  0.2295E-84  0.3774E+02
  23.560  0.2295E-84  0.3774E+02
  23.570  0.2295E-84  0.3774E+02
  23.580  0.2295E-84  0.3774E+02
  23.590  0.2295E-84  0.3774E+02
  23.600  0.2295E-84  0.3774E+02
  23.610  0.2295E-84  0.3774E+02
  23.620  0.2295E-84  0.3774E+02
  23.630  0.2295E-84  0.3774E+02
  23.640  0.2295E-84  0.3774E+02
  23.650  0.2295E-84  0.3774E+02
  23.660  0.2295E-84  0.3774E+02
  23.670  0.2295E-84  0.3774E+02
  23.680  0.2295E-84  0.3774E+02
  23.690  0.2295E-84  0.3774E+02
  23.700  0.2295E-84  0.3774E+02
  23.710  0.2295E-84  0.3774E+02
  23.720  0.2295E-84  0.3774E+02
  23.730  0.2295E-84  0.3774E+02
  23.740  0.2295E-84  0.3774E+02
  23.750  0.2295E-84  0.3774E+02
  23.760  0.2295E-84  0.3774E+02
  23.770  0.2295E-84  0.3774E+02
  23.780  0.2295E-84  0.3774E+02
  23.790  0.2295E-84  0.3774E+02
  23.800  0.2295E-84  0.3774E+02
  23.810  0.2295E-84  0.3774E+02
  23.820  0.2295E-84  0.3774E+02
  23.830  0.2295E-84  0.3774E+02
  23.840  0.2295E-84  0.3774E+02
  23.850  0.2295E-84  0.3774E+02
  23.860  0.2295E-84  0.3774E+02
  23.870  0.2295E-84  0.3774E+02
  23.880  0.2295E-84  0.3774E+02
  23.890  0.2295E-84  0.3774E+02
  23.900  0.2295E-84  0.3774E+02
  23.910  0.2295E-84  0.3774E+02
  23.920  0.2295E-84  0.3774E+02
  23.930  0.2295E-84  0.3774E+02
  23.940  0.2295E-84  0.3774E+02
  23.950  0.2295E-84  0.3774E+02
  23.960  0.2295E-84  0.3774E+02
  23.970  0.2295E-84  0.3774E+02
  23.980  0.2295E-84  0.3774E+02
  23.990  0.2295E-84  0.3774E+02
  24.000  0.2295E-84  0.3774E+02
  24.010  0.2295E-84  0.3774E+02
  24.020  0.2295E-84  0.3774E+02
  24.030  0.2295E-84  0.3774E+02
  24.040  0.2295E-84  0.3774E+02
  24.050  0.2295E-84  0.3774E+02
  24.060  0.2295E-84  0.3774E+02
  24.070  0.2295E-84  0.3774E+02
  24.080  0.2295E-84  0.3774E+02
  24.090  0.2295E-84  0.3774E+02
  24.100  0.2295E-84  0.3774E+02
  24.110  0.2295E-84  0.3774E+02
  24.120  0.2295E-84  0.3774E+02
  24.130  0.2295E-84  0.3774E+02
  24.140  0.2295E-84  0.3774E+02
  24.150  0.2295E-84  0.3774E+02
  24.160  0.2295E-84  0.3774E+02
  24.170  0.2295E-84  0.3774E+02
  24.180  0.2295E-84  0.3774E+02
  24.190  0.2295E-84  0.3774E+02
  24.200  0.2295E-84  0.3774E+02
  24.210  0.2295E-84  0.3774E+02
  24.220  0.2295E-84  0.3774E+02
  24.230  0.2295E-84  0.3774E+02
  24.240  0.2295E-84  0.3774E+02
  24.250  0.2295E-84  0.3774E+02
  24.260  0.2295E-84  0.3774E+02
  24.270  0.2295E-84  0.3774E+02
  24.280  0.2295E-84  0.3774E+02
  24.290  0.2295E-84  0.3774E+02
  24.300  0.2295E-84  0.3774E+02
  24.310  0.2295E-84  0.3774E+02
  24.320  0.2295E-84  0.3774E+02
  24.330  0.2295E-84  0.3774E+02
  24.340  0.2295E-84  0.3774E+02
  24.350  0.2295E-84  0.3774E+02
  24.360  0.2295E-84  0.3774E+02
  24.370  0.2295E-84  0.3774E+02
  24.380  0.2295E-84  0.3774E+02
  24.390  0.2295E-84  0.3774E+02
  24.400  0.2295E-84  0.3774E+02
  24.410  0.2295E-84  0.3774E+02
  24.420  0.2295E-84  0.3774E+02
  24.430  0.2295E-84  0.3774E+02
  24.440  0.2295E-84  0.3774E+02
  24.450  0.2295E-84  0.3774E+02
  24.460  0.2295E-84  0.3774E+02
  24.470  0.2295E-84  0.3774E+02
  24.480  0.2295E-84  0.3774E+02
  24.490  0.2295E-84  0.3774E+02
  24.500  0.2295E-84  0.3774E+02
  24.510  0.2295E-84  0.3774E+02
  24.520  0.2295E-84  0.3774E+02
  24.530  0.2295E-84  0.3774E+02
  24.540  0.2295E-84  0.3774E+02
  24.550  0.2295E-84  0.3774E+02
  24.560  0.2295E-84  0.3774E+02
  24.570  0.2295E-84  0.3774E+02
  24.580  0.2295E-84  0.3774E+02
  24.590  0.2295E-84  0.3774E+02
  24.600  0.2295E-84  0.3774E+02
  24.610  0.2295E-84  0.3774E+02
  24.620  0.2295E-84  0.3774E+02
  24.630  0.2295E-84  0.3774E+02
  24.640  0.2295E-84  0.3774E+02
  24.650  0.2295E-84  0.3774E+02
  24.660  0.2295E-84  0.3774E+02
  24.670  0.2295E-84  0.3774E+02
  24.680  0.2295E-84  0.3774E+02
  24.690  0.2295E-84  0.3774E+02
  24.700  0.2295E-84  0.3774E+02
  24.710  0.2295E-84  0.3774E+02
  24.720  0.2295E-84  0.3774E+02
  24.730  0.2295E-84  0.3774E+02
  24.740  0.2295E-84  0.3774E+02
  24.750  0.2295E-84  0.3774E+02
  24.760  0.2295E-84  0.3774E+02
  24.770  0.2295E-84  0.3774E+02
  24.780  0.2295E-84  0.3774E+02
  24.790  0.2295E-84  0.3774E+02
  24.800  0.2295E-84  0.3774E+02
  24.810  0.2295E-84  0.3774E+02
  24.820  0.2295E-84  0.3774E+02
  24.830  0.2295E-84  0.3774E+02
  24.840  0.2295E-84  0.3774E+02
  24.850  0.2295E-84  0.3774E+02
  24.860  0.2295E-84  0.3774E+02
  24.870  0.2295E-84  0.3774E+02
  24.880  0.2295E-84  0.3774E+02
  24.890  0.2295E-84  0.3774E+02
  24.900  0.2295E-84  0.3774E+02
  24.910  0.2295E-84  0.3774E+02
  24.920  0.2295E-84  0.3774E+02
  24.930  0.2295E-84  0.3774E+02
  24.940  0.2295E-84  0.3774E+02
  24.950  0.2295E-84  0.3774E+02
  24.960  0.2295E-84  0.3774E+02
  24.970  0.2295E-84  0.3774E+02
  24.980  0.2295E-84  0.3774E+02
  24.990  0.2295E-84  0.3774E+02
  25.000  0.2295E-84  0.3774E+02
  25.010  0.2295E-84  0.3774E+02
  25.020  0.2295E-84  0.3774E+02
  25.030  0.2295E-84  0.3774E+02
  25.040  0.2295E-84  0.3774E+02
  25.050  0.2295E-84  0.3774E+02
  25.060  0.2295E-84  0.3774E+02
  25.070  0.2295E-84  0.3774E+02
  25.080  0.2295E-84  0.3774E+02
  25.090  0.2295E-84  0.3774E+02
  25.100  0.2295E-84  0.3774E+02
  25.110  0.2295E-84  0.3774E+02
  25.120  0.2295E-84  0.3774E+02
  25.130  0.2295E-84  0.3774E+02
  25.140  0.2295E-84  0.3774E+02
  25.150  0.2295E-84  0.3774E+02
  25.160  0.2295E-84  0.3774E+02
  25.170  0.2295E-84  0.3774E+02
  25.180  0.2295E-84  0.3774E+02
  25.190  0.2295E-84  0.3774E+02
  25.200  0.2295E-84  0.3774E+02
  25.210  0.2295E-84  0.3774E+02
  25.220  0.2295E-84  0.3774E+02
  25.230  0.2295E-84  0.3774E+02
  25.240  0.2295E-84  0.3774E+02
  25.250  0.2295E-84  0.3774E+02
  25.260  0.2295E-84  0.3774E+02
  25.270  0.2295E-84  0.3774E+02
  25.280  0.2295E-84  0.3774E+02
  25.290  0.2295E-84  0.3774E+02
  25.300  0.2295E-84  0.3774E+02
  25.310  0.2295E-84  0.3774E+02
  25.320  0.2295E-84  0.3774E+02
  25.330  0.2295E-84  0.3774E+02
  25.340  0.2295E-84  0.3774E+02
  25.350  0.2295E-84  0.3774E+02
  25.360  0.2295E-84  0.3774E+02
  25.370  0.2295E-84  0.3774E+02
  25.380  0.2295E-84  0.3774E+02
  25.390  0.2295E-84  0.3774E+02
  25.400  0.2295E-84  0.3774E+02
  25.410  0.2295E-84  0.3774E+02
  25.420  0.2295E-84  0.3774E+02
  25.430  0.2295E-84  0.3774E+02
  25.440  0.2295E-84  0.3774E+02
  25.450  0.2295E-84  0.3774E+02
  25.460  0.2295E-84  0.3774E+02
  25.470  0.2295E-84  0.3774E+02
  25.480  0.2295E-84  0.3774E+02
  25.490  0.2295E-84  0.3774E+02
  25.500  0.2295E-84  0.3774E+02
  25.510  0.2295E-84  0.3774E+02
  25.520  0.2295E-84  0.3774E+02
  25.530  0.2295E-84  0.3774E+02
  25.540  0.2295E-84  0.3774E+02
  25.550  0.2295E-84  0.3774E+02
  25.560  0.2295E-84  0.3774E+02
  25.570  0.2295E-84  0.3774E+02
  25.580  0.2295E-84  0.3774E+02
  25.590  0.2295E-84  0.3774E+02
  25.600  0.2295E-84  0.3774E+02
  25.610  0.2295E-84  0.3774E+02
  25.620  0.2295E-84  0.3774E+02
  25.630  0.2295E-84  0.3774E+02
  25.640  0.2295E-84  0.3774E+02
  25.650  0.2295E-84  0.3774E+02
  25.660  0.2295E-84  0.3774E+02
  25.670  0.2295E-84  0.3774E+02
  25.680  0.2295E-84  0.3774E+02
  25.690  0.2295E-84  0.3774E+02
  25.700  0.2295E-84  0.3774E+02
  25.710  0.2295E-84  0.3774E+02
  25.720  0.2295E-84  0.3774E+02
  25.730  0.2295E-84  0.3774E+02
  25.740  0.2295E-84  0.3774E+02
  25.750  0.2295E-84  0.3774E+02
  25.760  0.2295E-84  0.3774E+02
  25.770  0.2295E-84  0.3774E+02
  25.780  0.2295E-84  0.3774E+02
  25.790  0.2295E-84  0.3774E+02
  25.800  0.2295E-84  0.3774E+02
  25.810  0.2295E-84  0.3774E+02
  25.820  0.2295E-84  0.3774E+02
  25.830  0.2295E-84  0.3774E+02
  25.840  0.2295E-84  0.3774E+02
  25.850  0.2295E-84  0.3774E+02
  25.860  0.2295E-84  0.3774E+02
  25.870  0.2295E-84  0.3774E+02
  25.880  0.2295E-84  0.3774E+02
  25.890  0.2295E-84  0.3774E+02
  25.900  0.2295E-84  0.3774E+02
  25.910  0.2295E-84  0.3774E+02
  25.920  0.2295E-84  0.3774E+02
  25.930  0.2295E-84  0.3774E+02
  25.940  0.2295E-84  0.3774E+02
  25.950  0.2295E-84  0.3774E+02
  25.960  0.2295E-84  0.3774E+02
  25.970  0.2295E-84  0.3774E+02
  25.980  0.2295E-84  0.3774E+02
  25.990  0.2295E-84  0.3774E+02
  26.000  0.2295E-84  0.3774E+02
  26.010  0.2295E-84  0.3774E+02
  26.020  0.2295E-84  0.3774E+02
  26.030  0.2295E-84  0.3774E+02
  26.040  0.2295E-84  0.3774E+02
  26.050  0.2295E-84  0.3774E+02
  26.060  0.2295E-84  0.3774E+02
  26.070  0.2295E-84  0.3774E+02
  26.080  0.2295E-84  0.3774E+02
  26.090  0.2295E-84  0.3774E+02
  26.100  0.2295E-84  0.3774E+02
  26.110  0.2295E-84  0.3774E+02
  26.120  0.2295E-84  0.3774E+02
  26.130  0.2295E-84  0.3774E+02
  26.140  0.2295E-84  0.3774E+02
  26.150  0.2295E-84  0.3774E+02
  26.160  0.2295E-84  0.3774E+02
  26.170  0.2295E-84  0.3774E+02
  26.180  0.2295E-84  0.3774E+02
  26.190  0.2295E-84  0.3774E+02
  26.200  0.2295E-84  0.3774E+02
  26.210  0.2295E-84  0.3774E+02
  26.220  0.2295E-84  0.3774E+02
  26.230  0.2295E-84  0.3774E+02
  26.240  0.2295E-84  0.3774E+02
  26.250  0.2295E-84  0.3774E+02
  26.260  0.2295E-84  0.3774E+02
  26.270  0.2295E-84  0.3774E+02
  26.280  0.2295E-84  0.3774E+02
  26.290  0.2295E-84  0.3774E+02
  26.300  0.2295E-84  0.3774E+02
  26.310  0.2295E-84  0.3774E+02
  26.320  0.2295E-84  0.3774E+02
  26.330  0.2295E-84  0.3774E+02
  26.340  0.2295E-84  0.3774E+02
  26.350  0.2295E-84  0.3774E+02
  26.360  0.2295E-84  0.3774E+02
  26.370  0.2295E-84  0.3774E+02
  26.380  0.2295E-84  0.3774E+02
  26.390  0.2295E-84  0.3774E+02
  26.400  0.2295E-84  0.3774E+02
  26.410  0.2295E-84  0.3774E+02
  26.420  0.2295E-84  0.3774E+02
  26.430  0.2295E-84  0.3774E+02
  26.440  0.2295E-84  0.3774E+02
  26.450  0.2295E-84  0.3774E+02
  26.460  0.2295E-84  0.3774E+02
  26.470  0.2295E-84  0.3774E+02
  26.480  0.2295E-84  0.3774E+02
  26.490  0.2295E-84  0.3774E+02
  26.500  0.2295E-84  0.3774E+02
  26.510  0.2295E-84  0.3774E+02
  26.520  0.2295E-84  0.3774E+02
  26.530  0.2295E-84  0.3774E+02
  26.540  0.2295E-84  0.3774E+02
  26.550  0.2295E-84  0.3774E+02
  26.560  0.2295E-84  0.3774E+02
  26.570  0.2295E-84  0.3774E+02
  26.580  0.2295E-84  0.3774E+02
  26.590  0.2295E-84  0.3774E+02
  26.600  0.2295E-84  0.3774E+02
  26.610  0.2295E-84  0.3774E+02
  26.620  0.2295E-84  0.3774E+02
  26.630  0.2295E-84  0.3774E+02
  26.640  0.2295E-84  0.3774E+02
  26.650  0.2295E-84  0.3774E+02
  26.660  0.2295E-84  0.3774E+02
  26.670  0.2295E-84  0.3774E+02
  26.680  0.2295E-84  0.3774E+02
  26.690  0.2295E-84  0.3774E+02
  26.700  0.2295E-84  0.3774E+02
  26.710  0.2295E-84  0.3774E+02
  26.720  0.2295E-84  0.3774E+02
  26.730  0.2295E-84  0.3774E+02
  26.740  0.2295E-84  0.3774E+02
  26.750  0.2295E-84  0.3774E+02
  26.760  0.2295E-84  0.3774E+02
  26.770  0.2295E-84  0.3774E+02
  26.780  0.2295E-84  0.3774E+02
  26.790  0.2295E-84  0.3774E+02
  26.800  0.2295E-84  0.3774E+02
  26.810  0.2295E-84  0.3774E+02
  26.820  0.2295E-84  0.3774E+02
  26.830  0.2295E-84  0.3774E+02
  26.840  0.2295E-84  0.3774E+02
  26.850  0.2295E-84  0.3774E+02
  26.860  0.2295E-84  0.3774E+02
  26.870  0.2295E-84  0.3774E+02
  26.880  0.2295E-84  0.3774E+02
  26.890  0.2295E-84  0.3774E+02
  26.900  0.2295E-84  0.3774E+02
  26.910  0.2295E-84  0.3774E+02
  26.920  0.2295E-84  0.3774E+02
  26.930  0.2295E-84  0.3774E+02
  26.940  0.2295E-84  0.3774E+02
  26.950  0.2295E-84  0.3774E+02
  26.960  0.2295E-84  0.3774E+02
  26.970  0.2295E-84  0.3774E+02
  26.980  0.2295E-84  0.3774E+02
  26.990  0.2295E-84  0.3774E+02
  27.000  0.2295E-84  0.3774E+02
  27.010  0.2295E-84  0.3774E+02
  27.020  0.2295E-84  0.3774E+02
  27.030  0.2295E-84  0.3774E+02
  27.040  0.2295E-84  0.3774E+02
  27.050  0.2295E-84  0.3774E+02
  27.060  0.2295E-84  0.3774E+02
  27.070  0.2295E-84  0.3774E+02
  27.080  0.2295E-84  0.3774E+02
  27.090  0.2295E-84  0.3774E+02
  27.100  0.2295E-84  0.3774E+02
  27.110  0.2295E-84  0.3774E+02
  27.120  0.2295E-84  0.3774E+02
  27.130  0.2295E-84  0.3774E+02
  27.140  0.2295E-84  0.3774E+02
  27.150  0.2295E-84  0.3774E+02
  27.160  0.2295E-84  0.3774E+02
  27.170  0.2295E-84  0.3774E+02
  27.180  0.2295E-84  0.3774E+02
  27.190  0.2295E-84  0.3774E+02
  27.200  0.2295E-84  0.3774E+02
  27.210  0.2295E-84  0.3774E+02
  27.220  0.2295E-84  0.3774E+02
  27.230  0.2295E-84  0.3774E+02
  27.240  0.2295E-84  0.3774E+02
  27.250  0.2295E-84  0.3774E+02
  27.260  0.2295E-84  0.3774E+02
  27.270  0.2295E-84  0.3774E+02
  27.280  0.2295E-84  0.3774E+02
  27.290  0.2295E-84  0.3774E+02
  27.300  0.2295E-84  0.3774E+02
  27.310  0.2295E-84  0.3774E+02
  27.320  0.2295E-84  0.3774E+02
  27.330  0.2295E-84  0.3774E+02
  27.340  0.2295E-84  0.3774E+02
  27.350  0.2295E-84  0.3774E+02
  27.360  0.2295E-84  0.3774E+02
  27.370  0.2295E-84  0.3774E+02
  27.380  0.2295E-84  0.3774E+02
  27.390  0.2295E-84  0.3774E+02
  27.400  0.2295E-84  0.3774E+02
  27.410  0.2295E-84  0.3774E+02
  27.420  0.2295E-84  0.3774E+02
  27.430  0.2295E-84  0.3774E+02
  27.440  0.2295E-84  0.3774E+02
  27.450  0.2295E-84  0.3774E+02
  27.460  0.2295E-84  0.3774E+02
  27.470  0.2295E-84  0.3774E+02
  27.480  0.2295E-84  0.3774E+02
  27.490  0.2295E-84  0.3774E+02
  27.500  0.2295E-84  0.3774E+02
  27.510  0.2295E-84  0.3774E+02
  27.520  0.2295E-84  0.3774E+02
  27.530  0.2295E-84  0.3774E+02
  27.540  0.2295E-84  0.3774E+02
  27.550  0.2295E-84  0.3774E+02
  27.560  0.2295E-84  0.3774E+02
  27.570  0.2295E-84  0.3774E+02
  27.580  0.2295E-84  0.3774E+02
  27.590  0.2295E-84  0.3774E+02
  27.600  0.2295E-84  0.3774E+02
  27.610  0.2295E-84  0.3774E+02
  27.620  0.2295E-84  0.3774E+02
  27.630  0.2295E-84  0.3774E+02
  27.640  0.2295E-84  0.3774E+02
  27.650  0.2295E-84  0.3774E+02
  27.660  0.2295E-84  0.3774E+02
  27.670  0.2295E-84  0.3774E+02
  27.680  0.2295E-84  0.3774E+02
  27.690  0.2295E-84  0.3774E+02
  27.700  0.2295E-84  0.3774E+02
  27.710  0.2295E-84  0.3774E+02
  27.720  0.2295E-84  0.3774E+02
  27.730  0.2295E-84  0.3774E+02
  27.740  0.2295E-84  0.3774E+02
  27.750  0.2295E-84  0.3774E+02
  27.760  0.2295E-84  0.3774E+02
  27.770  0.2295E-84  0.3774E+02
  27.780  0.2295E-84  0.3774E+02
  27.790  0.2295E-84  0.3774E+02
  27.800  0.2295E-84  0.3774E+02
  27.810  0.2295E-84  0.3774E+02
  27.820  0.2295E-84  0.3774E+02
  27.830  0.2295E-84  0.3774E+02
  27.840  0.2295E-84  0.3774E+02
  27.850  0.2295E-84  0.3774E+02
  27.860  0.2295E-84  0.3774E+02
  27.870  0.2295E-84  0.3774E+02
  27.880  0.2295E-84  0.3774E+02
  27.890  0.2295E-84  0.3774E+02
  27.900  0.2295E-84  0.3774E+02
  27.910  0.2295E-84  0.3774E+02
  27.920  0.2295E-84  0.3774E+02
  27.930  0.2295E-84  0.3774E+02
  27.940  0.2295E-84  0.3774E+02
  27.950  0.2295E-84  0.3774E+02
  27.960  0.2295E-84  0.3774E+02
  27.970  0.2295E-84  0.3774E+02
  27.980  0.2295E-84  0.3774E+02
  27.990  0.2295E-84  0.3774E+02
  28.000  0.2295E-84  0.3774E+02
  28.010  0.2295E-84  0.3774E+02
  28.020  0.2295E-84  0.3774E+02
  28.030  0.2295E-84  0.3774E+02
  28.040  0.2295E-84  0.3774E+02
  28.050  0.2295E-84  0.3774E+02
  28.060  0.2295E-84  0.3774E+02
  28.070  0.2295E-84  0.3774E+02
  28.080  0.2295E-84  0.3774E+02
  28.090  0.2295E-84  0.3774E+02
  28.100  0.2295E-84  0.3774E+02
  28.110  0.2295E-84  0.3774E+02
  28.120  0.2295E-84  0.3774E+02
  28.130  0.2295E-84  0.3774E+02
  28.140  0.2295E-84  0.3774E+02
  28.150  0.2295E-84  0.3774E+02
  28.160  0.2295E-84  0.3774E+02
  28.170  0.2295E-84  0.3774E+02
  28.180  0.2295E-84  0.3774E+02
  28.190  0.2295E-84  0.3774E+02
  28.200  0.2295E-84  0.3774E+02
  28.210  0.2295E-84  0.3774E+02
  28.220  0.2295E-84  0.3774E+02
  28.230  0.2295E-84  0.3774E+02
  28.240  0.2295E-84  0.3774E+02
  28.250  0.2295E-84  0.3774E+02
  28.260  0.2295E-84  0.3774E+02
  28.270  0.2295E-84  0.3774E+02
  28.280  0.2295E-84  0.3774E+02
  28.290  0.2295E-84  0.3774E+02
  28.300  0.2295E-84  0.3774E+02
  28.310  0.2295E-84  0.3774E+02
  28.320  0.2295E-84  0.3774E+02
  28.330  0.2295E-84  0.3774E+02
  28.340  0.2295E-84  0.3774E+02
  28.350  0.2295E-84  0.3774E+02
  28.360  0.2295E-84  0.3774E+02
  28.370  0.2295E-84  0.3774E+02
  28.380  0.2295E-84  0.3774E+02
  28.390  0.2295E-84  0.3774E+02
  28.400  0.2295E-84  0.3774E+02
  28.410  0.2295E-84  0.3774E+02
  28.420  0.2295E-84  0.3774E+02
  28.430  0.2295E-84  0.3774E+02
  28.440  0.2295E-84  0.3774E+02
  28.450  0.2295E-84  0.3774E+02
  28.460  0.2295E-84  0.3774E+02
  28.470  0.2295E-84  0.3774E+02
  28.480  0.2295E-84  0.3774E+02
  28.490  0.2295E-84  0.3774E+02
  28.500  0.2295E-84  0.3774E+02
  28.510  0.2295E-84  0.3774E+02
  28.520  0.2295E-84  0.3774E+02
  28.530  0.2295E-84  0.3774E+02
  28.540  0.2295E-84  0.3774E+02
  28.550  0.2295E-84  0.3774E+02
  28.560  0.2295E-84  0.3774E+02
  28.570  0.2295E-84  0.3774E+02
  28.580  0.2295E-84  0.3774E+02
  28.590  0.2295E-84  0.3774E+02
  28.600  0.2295E-84  0.3774E+02
  28.610  0.2295E-84  0.3774E+02
  28.620  0.2295E-84  0.3774E+02
  28.630  0.2295E-84  0.3774E+02
  28.640  0.2295E-84  0.3774E+02
  28.650  0.2295E-84  0.3774E+02
  28.660  0.2295E-84  0.3774E+02
  28.670  0.2295E-84  0.3774E+02
  28.680  0.2295E-84  0.3774E+02
  28.690  0.2295E-84  0.3774E+02
  28.700  0.2295E-84  0.3774E+02
  28.710  0.2295E-84  0.3774E+02
  28.720  0.2295E-84  0.3774E+02
  28.730  0.2295E-84  0.3774E+02
  28.740  0.2295E-84  0.3774E+02
  28.750  0.2295E-84  0.3774E+02
  28.760  0.2295E-84  0.3774E+02
  28.770  0.2295E-84  0.3774E+02
  28.780  0.2295E-84  0.3774E+02
  28.790  0.2295E-84  0.3774E+02
  28.800  0.2295E-84  0.3774E+02
  28.810  0.2295E-84  0.3774E+02
  28.820  0.2295E-84  0.3774E+02
  28.830  0.2295E-84  0.3774E+02
  28.840  0.2295E-84  0.3774E+02
  28.850  0.2295E-84  0.3774E+02
  28.860  0.2295E-84  0.3774E+02
  28.870  0.2295E-84  0.3774E+02
  28.880  0.2295E-84  0.3774E+02
  28.890  0.2295E-84  0.3774E+02
  28.900  0.2295E-84  0.3774E+02
  28.910  0.2295E-84  0.3774E+02
  28.920  0.2295E-84  0.3774E+02
  28.930  0.2295E-84  0.3774E+02
  28.940  0.2295E-84  0.3774E+02
  28.950  0.2295E-84  0.3774E+02
  28.960  0.2295E-84  0.3774E+02
  28.970  0.2295E-84  0.3774E+02
  28.980  0.2295E-84  0.3774E+02
  28.990  0.2295E-84  0.3774E+02
  29.000  0.2295E-84  0.3774E+02
  29.010  0.2295E-84  0.3774E+02
  29.020  0.2295E-84  0.3774E+02
  29.030  0.2295E-84  0.3774E+02
  29.040  0.2295E-84  0.3774E+02
  29.050  0.2295E-84  0.3774E+02
  29.060  0.2295E-84  0.3774E+02
  29.070  0.2295E-84  0.3774E+02
  29.080  0.2295E-84  0.3774E+02
  29.090  0.2295E-84  0.3774E+02
  29.100  0.2295E-84  0.3774E+02
  29.110  0.2295E-84  0.3774E+02
  29.120  0.2295E-84  0.3774E+02
  29.130  0.2295E-84  0.3774E+02
  29.140  0.2295E-84  0.3774E+02
  29.150  0.2295E-84  0.3774E+02
  29.160  0.2295E-84  0.3774E+02
  29.170  0.2295E-84  0.3774E+02
  29.180  0.2295E-84  0.3774E+02
  29.190  0.2295E-84  0.3774E+02
  29.200  0.2295E-84  0.3774E+02
  29.210  0.2295E-84  0.3774E+02
  29.220  0.2295E-84  0.3774E+02
  29.230  0.2295E-84  0.3774E+02
  29.240  0.2295E-84  0.3774E+02
  29.250  0.2295E-84  0.3774E+02
  29.260  0.2295E-84  0.3774E+02
  29.270  0.2295E-84  0.3774E+02
  29.280  0.2295E-84  0.3774E+02
  29.290  0.2295E-84  0.3774E+02
  29.300  0.2295E-84  0.3774E+02
  29.310  0.2295E-84  0.3774E+02
  29.320  0.2295E-84  0.3774E+02
  29.330  0.2295E-84  0.3774E+02
  29.340  0.2295E-84  0.3774E+02
  29.350  0.2295E-84  0.3774E+02
  29.360  0.2295E-84  0.3774E+02
  29.370  0.2295E-84  0.3774E+02
  29.380  0.2295E-84  0.3774E+02
  29.390  0.2295E-84  0.3774E+02
  29.400  0.2295E-84  0.3774E+02
  29.410  0.2295E-84  0.3774E+02
  29.420  0.2295E-84  0.3774E+02
  29.430  0.2295E-84  0.3774E+02
  29.440  0.2295E-84  0.3774E+02
  29.450  0.2295E-84  0.3774E+02
  29.460  0.2295E-84  0.3774E+02
  29.470  0.2295E-84  0.3774E+02
  29.480  0.2295E-84  0.3774E+02
  29.490  0.2295E-84  0.3774E+02
  29.500  0.2295E-84  0.3774E+02
  29.510  0.2295E-84  0.3774E+02
  29.520  0.2295E-84  0.3774E+02
  29.530  0.2295E-84  0.3774E+02
  29.540  0.2295E-84  0.3774E+02
  29.550  0.2295E-84  0.3774E+02
  29.560  0.2295E-84  0.3774E+02
  29.570  0.2295E-84  0.3774E+02
  29.580  0.2295E-84  0.3774E+02
  29.590  0.2295E-84  0.3774E+02
  29.600  0.2295E-84  0.3774E+02
  29.610  0.2295E-84  0.3774E+02
  29.620  0.2295E-84  0.3774E+02
  29.630  0.2295E-84  0.3774E+02
  29.640  0.2295E-84  0.3774E+02
  29.650  0.2295E-84  0.3774E+02
  29.660  0.2295E-84  0.3774E+02
  29.670  0.2295E-84  0.3774E+02
  29.680  0.2295E-84  0.3774E+02
  29.690  0.2295E-84  0.3774E+02
  29.700  0.2295E-84  0.3774E+02
  29.710  0.2295E-84  0.3774E+02
  29.720  0.2295E-84  0.3774E+02
  29.730  0.2295E-84  0.3774E+02
  29.740  0.2295E-84  0.3774E+02
  29.750  0.2295E-84  0.3774E+02
  29.760  0.2295E-84  0.3774E+02
  29.770  0.2295E-84  0.3774E+02
  29.780  0.2295E-84  0.3774E+02
  29.790  0.2295E-84  0.3774E+02
  29.800  0.2295E-84  0.3774E+02
  29.810  0.2295E-84  0.3774E+02
  29.820  0.2295E-84  0.3774E+02
  29.830  0.2295E-84  0.3774E+02
  29.840  0.2295E-84  0.3774E+02
  29.850  0.2295E-84  0.3774E+02
  29.860  0.2295E-84  0.3774E+02
  29.870  0.2295E-84  0.3774E+02
  29.880  0.2295E-84  0.3774E+02
  29.890  0.2295E-84  0.3774E+02
  29.900  0.2295E-84  0.3774E+02
  29.910  0.2295E-84  0.3774E+02
  29.920  0.2295E-84  0.3774E+02
  29.930  0.2295E-84  0.3774E+02
  29.940  0.2295E-84  0.3774E+02
  29.950  0.2295E-84  0.3774E+02
  29.960  0.2295E-84  0.3774E+02
  29.970  0.2295E-84  0.3774E+02
  29.980  0.2295E-84  0.3774E+02
  29.990  0.2295E-84  0.3774E+02
  30.000  0.2295E-84  0.3774E+02
