#  E (eV)   dos(E)     Int dos(E) EFermi =   -2.605 eV
 -15.000  0.5670E+00  0.5670E-02
 -14.990  0.5715E+00  0.1139E-01
 -14.980  0.5733E+00  0.1712E-01
 -14.970  0.5727E+00  0.2285E-01
 -14.960  0.5699E+00  0.2854E-01
 -14.950  0.5651E+00  0.3420E-01
 -14.940  0.5587E+00  0.3978E-01
 -14.930  0.5511E+00  0.4529E-01
 -14.920  0.5427E+00  0.5072E-01
 -14.910  0.5338E+00  0.5606E-01
 -14.900  0.5248E+00  0.6131E-01
 -14.890  0.5158E+00  0.6646E-01
 -14.880  0.5073E+00  0.7154E-01
 -14.870  0.4992E+00  0.7653E-01
 -14.860  0.4916E+00  0.8145E-01
 -14.850  0.4846E+00  0.8629E-01
 -14.840  0.4779E+00  0.9107E-01
 -14.830  0.4713E+00  0.9578E-01
 -14.820  0.4648E+00  0.1004E+00
 -14.810  0.4579E+00  0.1050E+00
 -14.800  0.4504E+00  0.1095E+00
 -14.790  0.4421E+00  0.1139E+00
 -14.780  0.4327E+00  0.1183E+00
 -14.770  0.4220E+00  0.1225E+00
 -14.760  0.4100E+00  0.1266E+00
 -14.750  0.3967E+00  0.1305E+00
 -14.740  0.3820E+00  0.1344E+00
 -14.730  0.3662E+00  0.1380E+00
 -14.720  0.3496E+00  0.1415E+00
 -14.710  0.3324E+00  0.1449E+00
 -14.700  0.3150E+00  0.1480E+00
 -14.690  0.2980E+00  0.1510E+00
 -14.680  0.2816E+00  0.1538E+00
 -14.670  0.2664E+00  0.1565E+00
 -14.660  0.2529E+00  0.1590E+00
 -14.650  0.2414E+00  0.1614E+00
 -14.640  0.2321E+00  0.1637E+00
 -14.630  0.2256E+00  0.1660E+00
 -14.620  0.2218E+00  0.1682E+00
 -14.610  0.2208E+00  0.1704E+00
 -14.600  0.2228E+00  0.1726E+00
 -14.590  0.2276E+00  0.1749E+00
 -14.580  0.2351E+00  0.1773E+00
 -14.570  0.2450E+00  0.1797E+00
 -14.560  0.2570E+00  0.1823E+00
 -14.550  0.2708E+00  0.1850E+00
 -14.540  0.2860E+00  0.1879E+00
 -14.530  0.3022E+00  0.1909E+00
 -14.520  0.3190E+00  0.1941E+00
 -14.510  0.3359E+00  0.1974E+00
 -14.500  0.3526E+00  0.2009E+00
 -14.490  0.3687E+00  0.2046E+00
 -14.480  0.3839E+00  0.2085E+00
 -14.470  0.3978E+00  0.2125E+00
 -14.460  0.4101E+00  0.2166E+00
 -14.450  0.4208E+00  0.2208E+00
 -14.440  0.4295E+00  0.2251E+00
 -14.430  0.4363E+00  0.2294E+00
 -14.420  0.4409E+00  0.2338E+00
 -14.410  0.4435E+00  0.2383E+00
 -14.400  0.4441E+00  0.2427E+00
 -14.390  0.4427E+00  0.2471E+00
 -14.380  0.4395E+00  0.2515E+00
 -14.370  0.4345E+00  0.2559E+00
 -14.360  0.4280E+00  0.2601E+00
 -14.350  0.4201E+00  0.2644E+00
 -14.340  0.4111E+00  0.2685E+00
 -14.330  0.4011E+00  0.2725E+00
 -14.320  0.3904E+00  0.2764E+00
 -14.310  0.3792E+00  0.2802E+00
 -14.300  0.3676E+00  0.2838E+00
 -14.290  0.3559E+00  0.2874E+00
 -14.280  0.3443E+00  0.2908E+00
 -14.270  0.3329E+00  0.2942E+00
 -14.260  0.3219E+00  0.2974E+00
 -14.250  0.3115E+00  0.3005E+00
 -14.240  0.3018E+00  0.3035E+00
 -14.230  0.2931E+00  0.3065E+00
 -14.220  0.2854E+00  0.3093E+00
 -14.210  0.2790E+00  0.3121E+00
 -14.200  0.2739E+00  0.3148E+00
 -14.190  0.2703E+00  0.3175E+00
 -14.180  0.2682E+00  0.3202E+00
 -14.170  0.2679E+00  0.3229E+00
 -14.160  0.2692E+00  0.3256E+00
 -14.150  0.2722E+00  0.3283E+00
 -14.140  0.2768E+00  0.3311E+00
 -14.130  0.2829E+00  0.3339E+00
 -14.120  0.2903E+00  0.3368E+00
 -14.110  0.2987E+00  0.3398E+00
 -14.100  0.3080E+00  0.3429E+00
 -14.090  0.3177E+00  0.3461E+00
 -14.080  0.3276E+00  0.3493E+00
 -14.070  0.3373E+00  0.3527E+00
 -14.060  0.3465E+00  0.3562E+00
 -14.050  0.3549E+00  0.3597E+00
 -14.040  0.3622E+00  0.3633E+00
 -14.030  0.3683E+00  0.3670E+00
 -14.020  0.3729E+00  0.3708E+00
 -14.010  0.3760E+00  0.3745E+00
 -14.000  0.3775E+00  0.3783E+00
 -13.990  0.3775E+00  0.3821E+00
 -13.980  0.3760E+00  0.3858E+00
 -13.970  0.3732E+00  0.3896E+00
 -13.960  0.3693E+00  0.3933E+00
 -13.950  0.3643E+00  0.3969E+00
 -13.940  0.3586E+00  0.4005E+00
 -13.930  0.3522E+00  0.4040E+00
 -13.920  0.3454E+00  0.4075E+00
 -13.910  0.3383E+00  0.4108E+00
 -13.900  0.3310E+00  0.4142E+00
 -13.890  0.3236E+00  0.4174E+00
 -13.880  0.3162E+00  0.4206E+00
 -13.870  0.3088E+00  0.4236E+00
 -13.860  0.3013E+00  0.4267E+00
 -13.850  0.2938E+00  0.4296E+00
 -13.840  0.2863E+00  0.4325E+00
 -13.830  0.2787E+00  0.4352E+00
 -13.820  0.2709E+00  0.4379E+00
 -13.810  0.2629E+00  0.4406E+00
 -13.800  0.2548E+00  0.4431E+00
 -13.790  0.2465E+00  0.4456E+00
 -13.780  0.2381E+00  0.4480E+00
 -13.770  0.2296E+00  0.4503E+00
 -13.760  0.2213E+00  0.4525E+00
 -13.750  0.2133E+00  0.4546E+00
 -13.740  0.2058E+00  0.4567E+00
 -13.730  0.1990E+00  0.4587E+00
 -13.720  0.1933E+00  0.4606E+00
 -13.710  0.1887E+00  0.4625E+00
 -13.700  0.1858E+00  0.4643E+00
 -13.690  0.1846E+00  0.4662E+00
 -13.680  0.1854E+00  0.4680E+00
 -13.670  0.1884E+00  0.4699E+00
 -13.660  0.1937E+00  0.4719E+00
 -13.650  0.2013E+00  0.4739E+00
 -13.640  0.2111E+00  0.4760E+00
 -13.630  0.2230E+00  0.4782E+00
 -13.620  0.2368E+00  0.4806E+00
 -13.610  0.2522E+00  0.4831E+00
 -13.600  0.2689E+00  0.4858E+00
 -13.590  0.2863E+00  0.4887E+00
 -13.580  0.3039E+00  0.4917E+00
 -13.570  0.3214E+00  0.4949E+00
 -13.560  0.3382E+00  0.4983E+00
 -13.550  0.3537E+00  0.5018E+00
 -13.540  0.3676E+00  0.5055E+00
 -13.530  0.3795E+00  0.5093E+00
 -13.520  0.3890E+00  0.5132E+00
 -13.510  0.3959E+00  0.5171E+00
 -13.500  0.4000E+00  0.5211E+00
 -13.490  0.4014E+00  0.5252E+00
 -13.480  0.4002E+00  0.5292E+00
 -13.470  0.3964E+00  0.5331E+00
 -13.460  0.3903E+00  0.5370E+00
 -13.450  0.3823E+00  0.5409E+00
 -13.440  0.3727E+00  0.5446E+00
 -13.430  0.3620E+00  0.5482E+00
 -13.420  0.3508E+00  0.5517E+00
 -13.410  0.3394E+00  0.5551E+00
 -13.400  0.3284E+00  0.5584E+00
 -13.390  0.3183E+00  0.5616E+00
 -13.380  0.3095E+00  0.5647E+00
 -13.370  0.3025E+00  0.5677E+00
 -13.360  0.2976E+00  0.5707E+00
 -13.350  0.2951E+00  0.5736E+00
 -13.340  0.2951E+00  0.5766E+00
 -13.330  0.2978E+00  0.5795E+00
 -13.320  0.3032E+00  0.5826E+00
 -13.310  0.3112E+00  0.5857E+00
 -13.300  0.3216E+00  0.5889E+00
 -13.290  0.3341E+00  0.5922E+00
 -13.280  0.3484E+00  0.5957E+00
 -13.270  0.3641E+00  0.5994E+00
 -13.260  0.3806E+00  0.6032E+00
 -13.250  0.3974E+00  0.6071E+00
 -13.240  0.4140E+00  0.6113E+00
 -13.230  0.4298E+00  0.6156E+00
 -13.220  0.4443E+00  0.6200E+00
 -13.210  0.4570E+00  0.6246E+00
 -13.200  0.4674E+00  0.6293E+00
 -13.190  0.4752E+00  0.6340E+00
 -13.180  0.4802E+00  0.6388E+00
 -13.170  0.4821E+00  0.6437E+00
 -13.160  0.4810E+00  0.6485E+00
 -13.150  0.4769E+00  0.6532E+00
 -13.140  0.4701E+00  0.6579E+00
 -13.130  0.4607E+00  0.6625E+00
 -13.120  0.4493E+00  0.6670E+00
 -13.110  0.4361E+00  0.6714E+00
 -13.100  0.4218E+00  0.6756E+00
 -13.090  0.4067E+00  0.6797E+00
 -13.080  0.3915E+00  0.6836E+00
 -13.070  0.3765E+00  0.6874E+00
 -13.060  0.3622E+00  0.6910E+00
 -13.050  0.3489E+00  0.6945E+00
 -13.040  0.3368E+00  0.6978E+00
 -13.030  0.3260E+00  0.7011E+00
 -13.020  0.3166E+00  0.7043E+00
 -13.010  0.3086E+00  0.7073E+00
 -13.000  0.3017E+00  0.7104E+00
 -12.990  0.2959E+00  0.7133E+00
 -12.980  0.2908E+00  0.7162E+00
 -12.970  0.2862E+00  0.7191E+00
 -12.960  0.2818E+00  0.7219E+00
 -12.950  0.2775E+00  0.7247E+00
 -12.940  0.2729E+00  0.7274E+00
 -12.930  0.2681E+00  0.7301E+00
 -12.920  0.2628E+00  0.7327E+00
 -12.910  0.2573E+00  0.7353E+00
 -12.900  0.2514E+00  0.7378E+00
 -12.890  0.2455E+00  0.7403E+00
 -12.880  0.2396E+00  0.7427E+00
 -12.870  0.2342E+00  0.7450E+00
 -12.860  0.2293E+00  0.7473E+00
 -12.850  0.2253E+00  0.7496E+00
 -12.840  0.2226E+00  0.7518E+00
 -12.830  0.2213E+00  0.7540E+00
 -12.820  0.2216E+00  0.7562E+00
 -12.810  0.2237E+00  0.7584E+00
 -12.800  0.2277E+00  0.7607E+00
 -12.790  0.2337E+00  0.7631E+00
 -12.780  0.2416E+00  0.7655E+00
 -12.770  0.2514E+00  0.7680E+00
 -12.760  0.2629E+00  0.7706E+00
 -12.750  0.2760E+00  0.7734E+00
 -12.740  0.2904E+00  0.7763E+00
 -12.730  0.3060E+00  0.7793E+00
 -12.720  0.3225E+00  0.7826E+00
 -12.710  0.3395E+00  0.7860E+00
 -12.700  0.3569E+00  0.7895E+00
 -12.690  0.3744E+00  0.7933E+00
 -12.680  0.3917E+00  0.7972E+00
 -12.670  0.4086E+00  0.8013E+00
 -12.660  0.4248E+00  0.8055E+00
 -12.650  0.4402E+00  0.8099E+00
 -12.640  0.4545E+00  0.8145E+00
 -12.630  0.4676E+00  0.8191E+00
 -12.620  0.4793E+00  0.8239E+00
 -12.610  0.4894E+00  0.8288E+00
 -12.600  0.4977E+00  0.8338E+00
 -12.590  0.5042E+00  0.8389E+00
 -12.580  0.5087E+00  0.8439E+00
 -12.570  0.5111E+00  0.8491E+00
 -12.560  0.5113E+00  0.8542E+00
 -12.550  0.5092E+00  0.8593E+00
 -12.540  0.5048E+00  0.8643E+00
 -12.530  0.4980E+00  0.8693E+00
 -12.520  0.4888E+00  0.8742E+00
 -12.510  0.4774E+00  0.8789E+00
 -12.500  0.4637E+00  0.8836E+00
 -12.490  0.4480E+00  0.8881E+00
 -12.480  0.4304E+00  0.8924E+00
 -12.470  0.4112E+00  0.8965E+00
 -12.460  0.3907E+00  0.9004E+00
 -12.450  0.3694E+00  0.9041E+00
 -12.440  0.3475E+00  0.9076E+00
 -12.430  0.3257E+00  0.9108E+00
 -12.420  0.3042E+00  0.9139E+00
 -12.410  0.2837E+00  0.9167E+00
 -12.400  0.2646E+00  0.9193E+00
 -12.390  0.2474E+00  0.9218E+00
 -12.380  0.2325E+00  0.9241E+00
 -12.370  0.2203E+00  0.9263E+00
 -12.360  0.2112E+00  0.9284E+00
 -12.350  0.2053E+00  0.9305E+00
 -12.340  0.2030E+00  0.9325E+00
 -12.330  0.2044E+00  0.9346E+00
 -12.320  0.2093E+00  0.9367E+00
 -12.310  0.2179E+00  0.9388E+00
 -12.300  0.2298E+00  0.9411E+00
 -12.290  0.2450E+00  0.9436E+00
 -12.280  0.2629E+00  0.9462E+00
 -12.270  0.2834E+00  0.9491E+00
 -12.260  0.3058E+00  0.9521E+00
 -12.250  0.3297E+00  0.9554E+00
 -12.240  0.3544E+00  0.9590E+00
 -12.230  0.3794E+00  0.9628E+00
 -12.220  0.4042E+00  0.9668E+00
 -12.210  0.4280E+00  0.9711E+00
 -12.200  0.4502E+00  0.9756E+00
 -12.190  0.4704E+00  0.9803E+00
 -12.180  0.4881E+00  0.9852E+00
 -12.170  0.5028E+00  0.9902E+00
 -12.160  0.5141E+00  0.9953E+00
 -12.150  0.5219E+00  0.1001E+01
 -12.140  0.5260E+00  0.1006E+01
 -12.130  0.5263E+00  0.1011E+01
 -12.120  0.5230E+00  0.1016E+01
 -12.110  0.5163E+00  0.1021E+01
 -12.100  0.5064E+00  0.1027E+01
 -12.090  0.4937E+00  0.1031E+01
 -12.080  0.4787E+00  0.1036E+01
 -12.070  0.4620E+00  0.1041E+01
 -12.060  0.4440E+00  0.1045E+01
 -12.050  0.4254E+00  0.1050E+01
 -12.040  0.4068E+00  0.1054E+01
 -12.030  0.3887E+00  0.1058E+01
 -12.020  0.3716E+00  0.1061E+01
 -12.010  0.3560E+00  0.1065E+01
 -12.000  0.3424E+00  0.1068E+01
 -11.990  0.3309E+00  0.1072E+01
 -11.980  0.3219E+00  0.1075E+01
 -11.970  0.3155E+00  0.1078E+01
 -11.960  0.3118E+00  0.1081E+01
 -11.950  0.3107E+00  0.1084E+01
 -11.940  0.3123E+00  0.1087E+01
 -11.930  0.3163E+00  0.1090E+01
 -11.920  0.3226E+00  0.1094E+01
 -11.910  0.3311E+00  0.1097E+01
 -11.900  0.3413E+00  0.1100E+01
 -11.890  0.3532E+00  0.1104E+01
 -11.880  0.3664E+00  0.1108E+01
 -11.870  0.3806E+00  0.1111E+01
 -11.860  0.3954E+00  0.1115E+01
 -11.850  0.4107E+00  0.1119E+01
 -11.840  0.4261E+00  0.1124E+01
 -11.830  0.4413E+00  0.1128E+01
 -11.820  0.4560E+00  0.1133E+01
 -11.810  0.4699E+00  0.1137E+01
 -11.800  0.4826E+00  0.1142E+01
 -11.790  0.4940E+00  0.1147E+01
 -11.780  0.5038E+00  0.1152E+01
 -11.770  0.5117E+00  0.1157E+01
 -11.760  0.5177E+00  0.1162E+01
 -11.750  0.5215E+00  0.1168E+01
 -11.740  0.5231E+00  0.1173E+01
 -11.730  0.5225E+00  0.1178E+01
 -11.720  0.5197E+00  0.1183E+01
 -11.710  0.5148E+00  0.1188E+01
 -11.700  0.5080E+00  0.1194E+01
 -11.690  0.4993E+00  0.1199E+01
 -11.680  0.4891E+00  0.1203E+01
 -11.670  0.4776E+00  0.1208E+01
 -11.660  0.4650E+00  0.1213E+01
 -11.650  0.4516E+00  0.1217E+01
 -11.640  0.4377E+00  0.1222E+01
 -11.630  0.4235E+00  0.1226E+01
 -11.620  0.4093E+00  0.1230E+01
 -11.610  0.3952E+00  0.1234E+01
 -11.600  0.3815E+00  0.1238E+01
 -11.590  0.3683E+00  0.1242E+01
 -11.580  0.3557E+00  0.1245E+01
 -11.570  0.3438E+00  0.1249E+01
 -11.560  0.3326E+00  0.1252E+01
 -11.550  0.3223E+00  0.1255E+01
 -11.540  0.3129E+00  0.1258E+01
 -11.530  0.3044E+00  0.1261E+01
 -11.520  0.2968E+00  0.1264E+01
 -11.510  0.2903E+00  0.1267E+01
 -11.500  0.2848E+00  0.1270E+01
 -11.490  0.2803E+00  0.1273E+01
 -11.480  0.2771E+00  0.1276E+01
 -11.470  0.2751E+00  0.1278E+01
 -11.460  0.2744E+00  0.1281E+01
 -11.450  0.2750E+00  0.1284E+01
 -11.440  0.2771E+00  0.1287E+01
 -11.430  0.2805E+00  0.1289E+01
 -11.420  0.2853E+00  0.1292E+01
 -11.410  0.2914E+00  0.1295E+01
 -11.400  0.2987E+00  0.1298E+01
 -11.390  0.3070E+00  0.1301E+01
 -11.380  0.3162E+00  0.1304E+01
 -11.370  0.3260E+00  0.1308E+01
 -11.360  0.3361E+00  0.1311E+01
 -11.350  0.3462E+00  0.1314E+01
 -11.340  0.3559E+00  0.1318E+01
 -11.330  0.3650E+00  0.1322E+01
 -11.320  0.3731E+00  0.1325E+01
 -11.310  0.3798E+00  0.1329E+01
 -11.300  0.3849E+00  0.1333E+01
 -11.290  0.3882E+00  0.1337E+01
 -11.280  0.3894E+00  0.1341E+01
 -11.270  0.3884E+00  0.1345E+01
 -11.260  0.3853E+00  0.1349E+01
 -11.250  0.3799E+00  0.1352E+01
 -11.240  0.3725E+00  0.1356E+01
 -11.230  0.3632E+00  0.1360E+01
 -11.220  0.3523E+00  0.1363E+01
 -11.210  0.3401E+00  0.1367E+01
 -11.200  0.3271E+00  0.1370E+01
 -11.190  0.3137E+00  0.1373E+01
 -11.180  0.3003E+00  0.1376E+01
 -11.170  0.2876E+00  0.1379E+01
 -11.160  0.2760E+00  0.1382E+01
 -11.150  0.2660E+00  0.1384E+01
 -11.140  0.2582E+00  0.1387E+01
 -11.130  0.2529E+00  0.1389E+01
 -11.120  0.2507E+00  0.1392E+01
 -11.110  0.2517E+00  0.1394E+01
 -11.100  0.2563E+00  0.1397E+01
 -11.090  0.2646E+00  0.1400E+01
 -11.080  0.2767E+00  0.1402E+01
 -11.070  0.2925E+00  0.1405E+01
 -11.060  0.3119E+00  0.1408E+01
 -11.050  0.3347E+00  0.1412E+01
 -11.040  0.3604E+00  0.1415E+01
 -11.030  0.3887E+00  0.1419E+01
 -11.020  0.4190E+00  0.1424E+01
 -11.010  0.4506E+00  0.1428E+01
 -11.000  0.4830E+00  0.1433E+01
 -10.990  0.5154E+00  0.1438E+01
 -10.980  0.5471E+00  0.1443E+01
 -10.970  0.5772E+00  0.1449E+01
 -10.960  0.6053E+00  0.1455E+01
 -10.950  0.6304E+00  0.1462E+01
 -10.940  0.6521E+00  0.1468E+01
 -10.930  0.6699E+00  0.1475E+01
 -10.920  0.6833E+00  0.1482E+01
 -10.910  0.6922E+00  0.1489E+01
 -10.900  0.6965E+00  0.1496E+01
 -10.890  0.6960E+00  0.1503E+01
 -10.880  0.6911E+00  0.1509E+01
 -10.870  0.6821E+00  0.1516E+01
 -10.860  0.6693E+00  0.1523E+01
 -10.850  0.6533E+00  0.1529E+01
 -10.840  0.6348E+00  0.1536E+01
 -10.830  0.6142E+00  0.1542E+01
 -10.820  0.5924E+00  0.1548E+01
 -10.810  0.5699E+00  0.1554E+01
 -10.800  0.5474E+00  0.1559E+01
 -10.790  0.5255E+00  0.1564E+01
 -10.780  0.5045E+00  0.1569E+01
 -10.770  0.4850E+00  0.1574E+01
 -10.760  0.4672E+00  0.1579E+01
 -10.750  0.4513E+00  0.1583E+01
 -10.740  0.4375E+00  0.1588E+01
 -10.730  0.4258E+00  0.1592E+01
 -10.720  0.4162E+00  0.1596E+01
 -10.710  0.4086E+00  0.1600E+01
 -10.700  0.4028E+00  0.1604E+01
 -10.690  0.3987E+00  0.1608E+01
 -10.680  0.3961E+00  0.1612E+01
 -10.670  0.3948E+00  0.1616E+01
 -10.660  0.3946E+00  0.1620E+01
 -10.650  0.3952E+00  0.1624E+01
 -10.640  0.3966E+00  0.1628E+01
 -10.630  0.3985E+00  0.1632E+01
 -10.620  0.4008E+00  0.1636E+01
 -10.610  0.4034E+00  0.1640E+01
 -10.600  0.4062E+00  0.1644E+01
 -10.590  0.4092E+00  0.1648E+01
 -10.580  0.4123E+00  0.1652E+01
 -10.570  0.4155E+00  0.1657E+01
 -10.560  0.4188E+00  0.1661E+01
 -10.550  0.4224E+00  0.1665E+01
 -10.540  0.4262E+00  0.1669E+01
 -10.530  0.4304E+00  0.1673E+01
 -10.520  0.4351E+00  0.1678E+01
 -10.510  0.4403E+00  0.1682E+01
 -10.500  0.4462E+00  0.1687E+01
 -10.490  0.4529E+00  0.1691E+01
 -10.480  0.4604E+00  0.1696E+01
 -10.470  0.4689E+00  0.1701E+01
 -10.460  0.4784E+00  0.1705E+01
 -10.450  0.4888E+00  0.1710E+01
 -10.440  0.5002E+00  0.1715E+01
 -10.430  0.5123E+00  0.1720E+01
 -10.420  0.5253E+00  0.1726E+01
 -10.410  0.5387E+00  0.1731E+01
 -10.400  0.5525E+00  0.1736E+01
 -10.390  0.5665E+00  0.1742E+01
 -10.380  0.5802E+00  0.1748E+01
 -10.370  0.5936E+00  0.1754E+01
 -10.360  0.6063E+00  0.1760E+01
 -10.350  0.6181E+00  0.1766E+01
 -10.340  0.6288E+00  0.1772E+01
 -10.330  0.6381E+00  0.1779E+01
 -10.320  0.6460E+00  0.1785E+01
 -10.310  0.6524E+00  0.1792E+01
 -10.300  0.6571E+00  0.1798E+01
 -10.290  0.6603E+00  0.1805E+01
 -10.280  0.6620E+00  0.1812E+01
 -10.270  0.6623E+00  0.1818E+01
 -10.260  0.6615E+00  0.1825E+01
 -10.250  0.6597E+00  0.1831E+01
 -10.240  0.6572E+00  0.1838E+01
 -10.230  0.6543E+00  0.1845E+01
 -10.220  0.6513E+00  0.1851E+01
 -10.210  0.6485E+00  0.1858E+01
 -10.200  0.6462E+00  0.1864E+01
 -10.190  0.6448E+00  0.1870E+01
 -10.180  0.6443E+00  0.1877E+01
 -10.170  0.6451E+00  0.1883E+01
 -10.160  0.6472E+00  0.1890E+01
 -10.150  0.6508E+00  0.1896E+01
 -10.140  0.6559E+00  0.1903E+01
 -10.130  0.6623E+00  0.1909E+01
 -10.120  0.6700E+00  0.1916E+01
 -10.110  0.6787E+00  0.1923E+01
 -10.100  0.6880E+00  0.1930E+01
 -10.090  0.6978E+00  0.1937E+01
 -10.080  0.7076E+00  0.1944E+01
 -10.070  0.7171E+00  0.1951E+01
 -10.060  0.7260E+00  0.1958E+01
 -10.050  0.7339E+00  0.1966E+01
 -10.040  0.7408E+00  0.1973E+01
 -10.030  0.7465E+00  0.1981E+01
 -10.020  0.7509E+00  0.1988E+01
 -10.010  0.7542E+00  0.1996E+01
 -10.000  0.7567E+00  0.2003E+01
  -9.990  0.7585E+00  0.2011E+01
  -9.980  0.7600E+00  0.2018E+01
  -9.970  0.7617E+00  0.2026E+01
  -9.960  0.7640E+00  0.2034E+01
  -9.950  0.7672E+00  0.2041E+01
  -9.940  0.7719E+00  0.2049E+01
  -9.930  0.7782E+00  0.2057E+01
  -9.920  0.7863E+00  0.2065E+01
  -9.910  0.7963E+00  0.2073E+01
  -9.900  0.8081E+00  0.2081E+01
  -9.890  0.8215E+00  0.2089E+01
  -9.880  0.8363E+00  0.2097E+01
  -9.870  0.8518E+00  0.2106E+01
  -9.860  0.8676E+00  0.2114E+01
  -9.850  0.8831E+00  0.2123E+01
  -9.840  0.8977E+00  0.2132E+01
  -9.830  0.9108E+00  0.2141E+01
  -9.820  0.9218E+00  0.2151E+01
  -9.810  0.9304E+00  0.2160E+01
  -9.800  0.9361E+00  0.2169E+01
  -9.790  0.9388E+00  0.2179E+01
  -9.780  0.9383E+00  0.2188E+01
  -9.770  0.9348E+00  0.2197E+01
  -9.760  0.9284E+00  0.2207E+01
  -9.750  0.9195E+00  0.2216E+01
  -9.740  0.9084E+00  0.2225E+01
  -9.730  0.8957E+00  0.2234E+01
  -9.720  0.8817E+00  0.2243E+01
  -9.710  0.8670E+00  0.2251E+01
  -9.700  0.8521E+00  0.2260E+01
  -9.690  0.8373E+00  0.2268E+01
  -9.680  0.8231E+00  0.2277E+01
  -9.670  0.8096E+00  0.2285E+01
  -9.660  0.7970E+00  0.2293E+01
  -9.650  0.7854E+00  0.2300E+01
  -9.640  0.7749E+00  0.2308E+01
  -9.630  0.7653E+00  0.2316E+01
  -9.620  0.7566E+00  0.2323E+01
  -9.610  0.7487E+00  0.2331E+01
  -9.600  0.7414E+00  0.2338E+01
  -9.590  0.7346E+00  0.2346E+01
  -9.580  0.7283E+00  0.2353E+01
  -9.570  0.7224E+00  0.2360E+01
  -9.560  0.7169E+00  0.2367E+01
  -9.550  0.7117E+00  0.2374E+01
  -9.540  0.7069E+00  0.2382E+01
  -9.530  0.7026E+00  0.2389E+01
  -9.520  0.6990E+00  0.2396E+01
  -9.510  0.6962E+00  0.2402E+01
  -9.500  0.6943E+00  0.2409E+01
  -9.490  0.6935E+00  0.2416E+01
  -9.480  0.6939E+00  0.2423E+01
  -9.470  0.6958E+00  0.2430E+01
  -9.460  0.6994E+00  0.2437E+01
  -9.450  0.7047E+00  0.2444E+01
  -9.440  0.7119E+00  0.2451E+01
  -9.430  0.7212E+00  0.2459E+01
  -9.420  0.7326E+00  0.2466E+01
  -9.410  0.7463E+00  0.2473E+01
  -9.400  0.7623E+00  0.2481E+01
  -9.390  0.7806E+00  0.2489E+01
  -9.380  0.8012E+00  0.2497E+01
  -9.370  0.8239E+00  0.2505E+01
  -9.360  0.8487E+00  0.2514E+01
  -9.350  0.8754E+00  0.2522E+01
  -9.340  0.9037E+00  0.2531E+01
  -9.330  0.9333E+00  0.2541E+01
  -9.320  0.9638E+00  0.2550E+01
  -9.310  0.9949E+00  0.2560E+01
  -9.300  0.1026E+01  0.2571E+01
  -9.290  0.1057E+01  0.2581E+01
  -9.280  0.1087E+01  0.2592E+01
  -9.270  0.1116E+01  0.2603E+01
  -9.260  0.1144E+01  0.2615E+01
  -9.250  0.1169E+01  0.2626E+01
  -9.240  0.1192E+01  0.2638E+01
  -9.230  0.1212E+01  0.2650E+01
  -9.220  0.1229E+01  0.2663E+01
  -9.210  0.1242E+01  0.2675E+01
  -9.200  0.1252E+01  0.2688E+01
  -9.190  0.1259E+01  0.2700E+01
  -9.180  0.1261E+01  0.2713E+01
  -9.170  0.1261E+01  0.2725E+01
  -9.160  0.1256E+01  0.2738E+01
  -9.150  0.1249E+01  0.2750E+01
  -9.140  0.1238E+01  0.2763E+01
  -9.130  0.1224E+01  0.2775E+01
  -9.120  0.1207E+01  0.2787E+01
  -9.110  0.1188E+01  0.2799E+01
  -9.100  0.1167E+01  0.2811E+01
  -9.090  0.1144E+01  0.2822E+01
  -9.080  0.1120E+01  0.2833E+01
  -9.070  0.1094E+01  0.2844E+01
  -9.060  0.1068E+01  0.2855E+01
  -9.050  0.1041E+01  0.2865E+01
  -9.040  0.1015E+01  0.2876E+01
  -9.030  0.9880E+00  0.2885E+01
  -9.020  0.9620E+00  0.2895E+01
  -9.010  0.9369E+00  0.2904E+01
  -9.000  0.9131E+00  0.2914E+01
  -8.990  0.8907E+00  0.2922E+01
  -8.980  0.8702E+00  0.2931E+01
  -8.970  0.8516E+00  0.2940E+01
  -8.960  0.8351E+00  0.2948E+01
  -8.950  0.8209E+00  0.2956E+01
  -8.940  0.8091E+00  0.2964E+01
  -8.930  0.7996E+00  0.2972E+01
  -8.920  0.7924E+00  0.2980E+01
  -8.910  0.7874E+00  0.2988E+01
  -8.900  0.7843E+00  0.2996E+01
  -8.890  0.7830E+00  0.3004E+01
  -8.880  0.7833E+00  0.3012E+01
  -8.870  0.7847E+00  0.3019E+01
  -8.860  0.7872E+00  0.3027E+01
  -8.850  0.7904E+00  0.3035E+01
  -8.840  0.7940E+00  0.3043E+01
  -8.830  0.7979E+00  0.3051E+01
  -8.820  0.8018E+00  0.3059E+01
  -8.810  0.8057E+00  0.3067E+01
  -8.800  0.8094E+00  0.3075E+01
  -8.790  0.8129E+00  0.3083E+01
  -8.780  0.8162E+00  0.3092E+01
  -8.770  0.8193E+00  0.3100E+01
  -8.760  0.8223E+00  0.3108E+01
  -8.750  0.8252E+00  0.3116E+01
  -8.740  0.8281E+00  0.3125E+01
  -8.730  0.8311E+00  0.3133E+01
  -8.720  0.8342E+00  0.3141E+01
  -8.710  0.8374E+00  0.3150E+01
  -8.700  0.8409E+00  0.3158E+01
  -8.690  0.8446E+00  0.3166E+01
  -8.680  0.8484E+00  0.3175E+01
  -8.670  0.8524E+00  0.3183E+01
  -8.660  0.8565E+00  0.3192E+01
  -8.650  0.8607E+00  0.3201E+01
  -8.640  0.8647E+00  0.3209E+01
  -8.630  0.8687E+00  0.3218E+01
  -8.620  0.8725E+00  0.3227E+01
  -8.610  0.8760E+00  0.3235E+01
  -8.600  0.8791E+00  0.3244E+01
  -8.590  0.8818E+00  0.3253E+01
  -8.580  0.8839E+00  0.3262E+01
  -8.570  0.8856E+00  0.3271E+01
  -8.560  0.8867E+00  0.3280E+01
  -8.550  0.8872E+00  0.3288E+01
  -8.540  0.8871E+00  0.3297E+01
  -8.530  0.8866E+00  0.3306E+01
  -8.520  0.8857E+00  0.3315E+01
  -8.510  0.8843E+00  0.3324E+01
  -8.500  0.8827E+00  0.3333E+01
  -8.490  0.8809E+00  0.3342E+01
  -8.480  0.8790E+00  0.3350E+01
  -8.470  0.8769E+00  0.3359E+01
  -8.460  0.8748E+00  0.3368E+01
  -8.450  0.8725E+00  0.3377E+01
  -8.440  0.8700E+00  0.3385E+01
  -8.430  0.8671E+00  0.3394E+01
  -8.420  0.8637E+00  0.3403E+01
  -8.410  0.8596E+00  0.3411E+01
  -8.400  0.8545E+00  0.3420E+01
  -8.390  0.8483E+00  0.3428E+01
  -8.380  0.8408E+00  0.3437E+01
  -8.370  0.8318E+00  0.3445E+01
  -8.360  0.8212E+00  0.3453E+01
  -8.350  0.8092E+00  0.3461E+01
  -8.340  0.7957E+00  0.3469E+01
  -8.330  0.7811E+00  0.3477E+01
  -8.320  0.7657E+00  0.3485E+01
  -8.310  0.7497E+00  0.3492E+01
  -8.300  0.7338E+00  0.3499E+01
  -8.290  0.7183E+00  0.3507E+01
  -8.280  0.7038E+00  0.3514E+01
  -8.270  0.6906E+00  0.3521E+01
  -8.260  0.6792E+00  0.3527E+01
  -8.250  0.6698E+00  0.3534E+01
  -8.240  0.6627E+00  0.3541E+01
  -8.230  0.6578E+00  0.3547E+01
  -8.220  0.6551E+00  0.3554E+01
  -8.210  0.6545E+00  0.3560E+01
  -8.200  0.6555E+00  0.3567E+01
  -8.190  0.6580E+00  0.3574E+01
  -8.180  0.6613E+00  0.3580E+01
  -8.170  0.6653E+00  0.3587E+01
  -8.160  0.6693E+00  0.3593E+01
  -8.150  0.6730E+00  0.3600E+01
  -8.140  0.6762E+00  0.3607E+01
  -8.130  0.6785E+00  0.3614E+01
  -8.120  0.6800E+00  0.3621E+01
  -8.110  0.6805E+00  0.3627E+01
  -8.100  0.6800E+00  0.3634E+01
  -8.090  0.6788E+00  0.3641E+01
  -8.080  0.6769E+00  0.3648E+01
  -8.070  0.6745E+00  0.3654E+01
  -8.060  0.6718E+00  0.3661E+01
  -8.050  0.6690E+00  0.3668E+01
  -8.040  0.6662E+00  0.3675E+01
  -8.030  0.6634E+00  0.3681E+01
  -8.020  0.6605E+00  0.3688E+01
  -8.010  0.6575E+00  0.3694E+01
  -8.000  0.6543E+00  0.3701E+01
  -7.990  0.6505E+00  0.3707E+01
  -7.980  0.6459E+00  0.3714E+01
  -7.970  0.6403E+00  0.3720E+01
  -7.960  0.6334E+00  0.3727E+01
  -7.950  0.6250E+00  0.3733E+01
  -7.940  0.6148E+00  0.3739E+01
  -7.930  0.6029E+00  0.3745E+01
  -7.920  0.5892E+00  0.3751E+01
  -7.910  0.5739E+00  0.3757E+01
  -7.900  0.5570E+00  0.3762E+01
  -7.890  0.5390E+00  0.3768E+01
  -7.880  0.5201E+00  0.3773E+01
  -7.870  0.5008E+00  0.3778E+01
  -7.860  0.4815E+00  0.3783E+01
  -7.850  0.4628E+00  0.3787E+01
  -7.840  0.4450E+00  0.3792E+01
  -7.830  0.4288E+00  0.3796E+01
  -7.820  0.4144E+00  0.3800E+01
  -7.810  0.4025E+00  0.3804E+01
  -7.800  0.3932E+00  0.3808E+01
  -7.790  0.3870E+00  0.3812E+01
  -7.780  0.3841E+00  0.3816E+01
  -7.770  0.3847E+00  0.3820E+01
  -7.760  0.3889E+00  0.3824E+01
  -7.750  0.3969E+00  0.3828E+01
  -7.740  0.4087E+00  0.3832E+01
  -7.730  0.4242E+00  0.3836E+01
  -7.720  0.4433E+00  0.3840E+01
  -7.710  0.4659E+00  0.3845E+01
  -7.700  0.4917E+00  0.3850E+01
  -7.690  0.5205E+00  0.3855E+01
  -7.680  0.5518E+00  0.3861E+01
  -7.670  0.5853E+00  0.3866E+01
  -7.660  0.6203E+00  0.3873E+01
  -7.650  0.6565E+00  0.3879E+01
  -7.640  0.6930E+00  0.3886E+01
  -7.630  0.7295E+00  0.3893E+01
  -7.620  0.7652E+00  0.3901E+01
  -7.610  0.7996E+00  0.3909E+01
  -7.600  0.8320E+00  0.3917E+01
  -7.590  0.8621E+00  0.3926E+01
  -7.580  0.8894E+00  0.3935E+01
  -7.570  0.9134E+00  0.3944E+01
  -7.560  0.9341E+00  0.3953E+01
  -7.550  0.9510E+00  0.3963E+01
  -7.540  0.9643E+00  0.3973E+01
  -7.530  0.9737E+00  0.3982E+01
  -7.520  0.9795E+00  0.3992E+01
  -7.510  0.9816E+00  0.4002E+01
  -7.500  0.9803E+00  0.4012E+01
  -7.490  0.9757E+00  0.4021E+01
  -7.480  0.9680E+00  0.4031E+01
  -7.470  0.9574E+00  0.4041E+01
  -7.460  0.9441E+00  0.4050E+01
  -7.450  0.9284E+00  0.4059E+01
  -7.440  0.9104E+00  0.4069E+01
  -7.430  0.8902E+00  0.4077E+01
  -7.420  0.8682E+00  0.4086E+01
  -7.410  0.8445E+00  0.4095E+01
  -7.400  0.8193E+00  0.4103E+01
  -7.390  0.7927E+00  0.4111E+01
  -7.380  0.7649E+00  0.4118E+01
  -7.370  0.7362E+00  0.4126E+01
  -7.360  0.7067E+00  0.4133E+01
  -7.350  0.6767E+00  0.4140E+01
  -7.340  0.6465E+00  0.4146E+01
  -7.330  0.6163E+00  0.4152E+01
  -7.320  0.5864E+00  0.4158E+01
  -7.310  0.5571E+00  0.4164E+01
  -7.300  0.5288E+00  0.4169E+01
  -7.290  0.5017E+00  0.4174E+01
  -7.280  0.4764E+00  0.4179E+01
  -7.270  0.4530E+00  0.4183E+01
  -7.260  0.4321E+00  0.4188E+01
  -7.250  0.4139E+00  0.4192E+01
  -7.240  0.3988E+00  0.4196E+01
  -7.230  0.3870E+00  0.4200E+01
  -7.220  0.3788E+00  0.4203E+01
  -7.210  0.3744E+00  0.4207E+01
  -7.200  0.3737E+00  0.4211E+01
  -7.190  0.3767E+00  0.4215E+01
  -7.180  0.3833E+00  0.4218E+01
  -7.170  0.3932E+00  0.4222E+01
  -7.160  0.4060E+00  0.4226E+01
  -7.150  0.4212E+00  0.4231E+01
  -7.140  0.4383E+00  0.4235E+01
  -7.130  0.4566E+00  0.4240E+01
  -7.120  0.4754E+00  0.4244E+01
  -7.110  0.4941E+00  0.4249E+01
  -7.100  0.5119E+00  0.4254E+01
  -7.090  0.5283E+00  0.4260E+01
  -7.080  0.5427E+00  0.4265E+01
  -7.070  0.5547E+00  0.4271E+01
  -7.060  0.5641E+00  0.4276E+01
  -7.050  0.5707E+00  0.4282E+01
  -7.040  0.5744E+00  0.4288E+01
  -7.030  0.5755E+00  0.4293E+01
  -7.020  0.5740E+00  0.4299E+01
  -7.010  0.5705E+00  0.4305E+01
  -7.000  0.5652E+00  0.4311E+01
  -6.990  0.5587E+00  0.4316E+01
  -6.980  0.5513E+00  0.4322E+01
  -6.970  0.5436E+00  0.4327E+01
  -6.960  0.5358E+00  0.4332E+01
  -6.950  0.5283E+00  0.4338E+01
  -6.940  0.5214E+00  0.4343E+01
  -6.930  0.5151E+00  0.4348E+01
  -6.920  0.5097E+00  0.4353E+01
  -6.910  0.5049E+00  0.4358E+01
  -6.900  0.5009E+00  0.4363E+01
  -6.890  0.4974E+00  0.4368E+01
  -6.880  0.4945E+00  0.4373E+01
  -6.870  0.4918E+00  0.4378E+01
  -6.860  0.4894E+00  0.4383E+01
  -6.850  0.4873E+00  0.4388E+01
  -6.840  0.4852E+00  0.4393E+01
  -6.830  0.4834E+00  0.4398E+01
  -6.820  0.4818E+00  0.4402E+01
  -6.810  0.4806E+00  0.4407E+01
  -6.800  0.4799E+00  0.4412E+01
  -6.790  0.4800E+00  0.4417E+01
  -6.780  0.4809E+00  0.4422E+01
  -6.770  0.4828E+00  0.4426E+01
  -6.760  0.4860E+00  0.4431E+01
  -6.750  0.4904E+00  0.4436E+01
  -6.740  0.4963E+00  0.4441E+01
  -6.730  0.5035E+00  0.4446E+01
  -6.720  0.5121E+00  0.4451E+01
  -6.710  0.5220E+00  0.4456E+01
  -6.700  0.5330E+00  0.4462E+01
  -6.690  0.5450E+00  0.4467E+01
  -6.680  0.5578E+00  0.4473E+01
  -6.670  0.5712E+00  0.4479E+01
  -6.660  0.5849E+00  0.4484E+01
  -6.650  0.5988E+00  0.4490E+01
  -6.640  0.6125E+00  0.4497E+01
  -6.630  0.6258E+00  0.4503E+01
  -6.620  0.6386E+00  0.4509E+01
  -6.610  0.6507E+00  0.4516E+01
  -6.600  0.6619E+00  0.4522E+01
  -6.590  0.6721E+00  0.4529E+01
  -6.580  0.6812E+00  0.4536E+01
  -6.570  0.6891E+00  0.4543E+01
  -6.560  0.6957E+00  0.4550E+01
  -6.550  0.7010E+00  0.4557E+01
  -6.540  0.7050E+00  0.4564E+01
  -6.530  0.7076E+00  0.4571E+01
  -6.520  0.7091E+00  0.4578E+01
  -6.510  0.7094E+00  0.4585E+01
  -6.500  0.7085E+00  0.4592E+01
  -6.490  0.7067E+00  0.4599E+01
  -6.480  0.7041E+00  0.4606E+01
  -6.470  0.7008E+00  0.4613E+01
  -6.460  0.6970E+00  0.4620E+01
  -6.450  0.6928E+00  0.4627E+01
  -6.440  0.6884E+00  0.4634E+01
  -6.430  0.6839E+00  0.4641E+01
  -6.420  0.6792E+00  0.4648E+01
  -6.410  0.6746E+00  0.4654E+01
  -6.400  0.6699E+00  0.4661E+01
  -6.390  0.6651E+00  0.4668E+01
  -6.380  0.6600E+00  0.4674E+01
  -6.370  0.6545E+00  0.4681E+01
  -6.360  0.6484E+00  0.4687E+01
  -6.350  0.6414E+00  0.4694E+01
  -6.340  0.6333E+00  0.4700E+01
  -6.330  0.6239E+00  0.4706E+01
  -6.320  0.6132E+00  0.4712E+01
  -6.310  0.6009E+00  0.4718E+01
  -6.300  0.5872E+00  0.4724E+01
  -6.290  0.5720E+00  0.4730E+01
  -6.280  0.5556E+00  0.4736E+01
  -6.270  0.5382E+00  0.4741E+01
  -6.260  0.5203E+00  0.4746E+01
  -6.250  0.5022E+00  0.4751E+01
  -6.240  0.4844E+00  0.4756E+01
  -6.230  0.4674E+00  0.4761E+01
  -6.220  0.4518E+00  0.4765E+01
  -6.210  0.4379E+00  0.4770E+01
  -6.200  0.4264E+00  0.4774E+01
  -6.190  0.4174E+00  0.4778E+01
  -6.180  0.4112E+00  0.4782E+01
  -6.170  0.4080E+00  0.4786E+01
  -6.160  0.4079E+00  0.4790E+01
  -6.150  0.4107E+00  0.4794E+01
  -6.140  0.4164E+00  0.4799E+01
  -6.130  0.4246E+00  0.4803E+01
  -6.120  0.4350E+00  0.4807E+01
  -6.110  0.4473E+00  0.4812E+01
  -6.100  0.4611E+00  0.4816E+01
  -6.090  0.4759E+00  0.4821E+01
  -6.080  0.4912E+00  0.4826E+01
  -6.070  0.5068E+00  0.4831E+01
  -6.060  0.5222E+00  0.4836E+01
  -6.050  0.5370E+00  0.4842E+01
  -6.040  0.5509E+00  0.4847E+01
  -6.030  0.5637E+00  0.4853E+01
  -6.020  0.5752E+00  0.4859E+01
  -6.010  0.5851E+00  0.4864E+01
  -6.000  0.5933E+00  0.4870E+01
  -5.990  0.5996E+00  0.4876E+01
  -5.980  0.6041E+00  0.4882E+01
  -5.970  0.6066E+00  0.4888E+01
  -5.960  0.6071E+00  0.4894E+01
  -5.950  0.6056E+00  0.4901E+01
  -5.940  0.6022E+00  0.4907E+01
  -5.930  0.5970E+00  0.4913E+01
  -5.920  0.5901E+00  0.4918E+01
  -5.910  0.5817E+00  0.4924E+01
  -5.900  0.5720E+00  0.4930E+01
  -5.890  0.5614E+00  0.4936E+01
  -5.880  0.5500E+00  0.4941E+01
  -5.870  0.5383E+00  0.4946E+01
  -5.860  0.5265E+00  0.4952E+01
  -5.850  0.5151E+00  0.4957E+01
  -5.840  0.5042E+00  0.4962E+01
  -5.830  0.4942E+00  0.4967E+01
  -5.820  0.4852E+00  0.4972E+01
  -5.810  0.4776E+00  0.4976E+01
  -5.800  0.4712E+00  0.4981E+01
  -5.790  0.4662E+00  0.4986E+01
  -5.780  0.4624E+00  0.4990E+01
  -5.770  0.4597E+00  0.4995E+01
  -5.760  0.4577E+00  0.5000E+01
  -5.750  0.4563E+00  0.5004E+01
  -5.740  0.4551E+00  0.5009E+01
  -5.730  0.4536E+00  0.5013E+01
  -5.720  0.4516E+00  0.5018E+01
  -5.710  0.4486E+00  0.5022E+01
  -5.700  0.4444E+00  0.5027E+01
  -5.690  0.4388E+00  0.5031E+01
  -5.680  0.4316E+00  0.5035E+01
  -5.670  0.4228E+00  0.5040E+01
  -5.660  0.4124E+00  0.5044E+01
  -5.650  0.4007E+00  0.5048E+01
  -5.640  0.3878E+00  0.5052E+01
  -5.630  0.3743E+00  0.5055E+01
  -5.620  0.3605E+00  0.5059E+01
  -5.610  0.3470E+00  0.5063E+01
  -5.600  0.3343E+00  0.5066E+01
  -5.590  0.3230E+00  0.5069E+01
  -5.580  0.3138E+00  0.5072E+01
  -5.570  0.3070E+00  0.5075E+01
  -5.560  0.3033E+00  0.5078E+01
  -5.550  0.3029E+00  0.5081E+01
  -5.540  0.3062E+00  0.5084E+01
  -5.530  0.3134E+00  0.5088E+01
  -5.520  0.3244E+00  0.5091E+01
  -5.510  0.3392E+00  0.5094E+01
  -5.500  0.3575E+00  0.5098E+01
  -5.490  0.3789E+00  0.5102E+01
  -5.480  0.4030E+00  0.5106E+01
  -5.470  0.4292E+00  0.5110E+01
  -5.460  0.4567E+00  0.5114E+01
  -5.450  0.4850E+00  0.5119E+01
  -5.440  0.5131E+00  0.5124E+01
  -5.430  0.5404E+00  0.5130E+01
  -5.420  0.5662E+00  0.5135E+01
  -5.410  0.5897E+00  0.5141E+01
  -5.400  0.6105E+00  0.5147E+01
  -5.390  0.6281E+00  0.5154E+01
  -5.380  0.6421E+00  0.5160E+01
  -5.370  0.6523E+00  0.5167E+01
  -5.360  0.6587E+00  0.5173E+01
  -5.350  0.6613E+00  0.5180E+01
  -5.340  0.6603E+00  0.5187E+01
  -5.330  0.6560E+00  0.5193E+01
  -5.320  0.6488E+00  0.5200E+01
  -5.310  0.6392E+00  0.5206E+01
  -5.300  0.6276E+00  0.5212E+01
  -5.290  0.6146E+00  0.5218E+01
  -5.280  0.6007E+00  0.5224E+01
  -5.270  0.5863E+00  0.5230E+01
  -5.260  0.5720E+00  0.5236E+01
  -5.250  0.5581E+00  0.5242E+01
  -5.240  0.5450E+00  0.5247E+01
  -5.230  0.5329E+00  0.5252E+01
  -5.220  0.5221E+00  0.5258E+01
  -5.210  0.5125E+00  0.5263E+01
  -5.200  0.5043E+00  0.5268E+01
  -5.190  0.4973E+00  0.5273E+01
  -5.180  0.4915E+00  0.5278E+01
  -5.170  0.4868E+00  0.5282E+01
  -5.160  0.4828E+00  0.5287E+01
  -5.150  0.4794E+00  0.5292E+01
  -5.140  0.4762E+00  0.5297E+01
  -5.130  0.4732E+00  0.5302E+01
  -5.120  0.4699E+00  0.5306E+01
  -5.110  0.4661E+00  0.5311E+01
  -5.100  0.4617E+00  0.5316E+01
  -5.090  0.4565E+00  0.5320E+01
  -5.080  0.4505E+00  0.5325E+01
  -5.070  0.4436E+00  0.5329E+01
  -5.060  0.4359E+00  0.5333E+01
  -5.050  0.4275E+00  0.5338E+01
  -5.040  0.4187E+00  0.5342E+01
  -5.030  0.4096E+00  0.5346E+01
  -5.020  0.4008E+00  0.5350E+01
  -5.010  0.3924E+00  0.5354E+01
  -5.000  0.3850E+00  0.5358E+01
  -4.990  0.3789E+00  0.5362E+01
  -4.980  0.3744E+00  0.5365E+01
  -4.970  0.3718E+00  0.5369E+01
  -4.960  0.3714E+00  0.5373E+01
  -4.950  0.3733E+00  0.5376E+01
  -4.940  0.3774E+00  0.5380E+01
  -4.930  0.3836E+00  0.5384E+01
  -4.920  0.3917E+00  0.5388E+01
  -4.910  0.4014E+00  0.5392E+01
  -4.900  0.4121E+00  0.5396E+01
  -4.890  0.4233E+00  0.5400E+01
  -4.880  0.4343E+00  0.5405E+01
  -4.870  0.4446E+00  0.5409E+01
  -4.860  0.4536E+00  0.5414E+01
  -4.850  0.4605E+00  0.5418E+01
  -4.840  0.4650E+00  0.5423E+01
  -4.830  0.4666E+00  0.5428E+01
  -4.820  0.4650E+00  0.5432E+01
  -4.810  0.4600E+00  0.5437E+01
  -4.800  0.4517E+00  0.5441E+01
  -4.790  0.4403E+00  0.5446E+01
  -4.780  0.4258E+00  0.5450E+01
  -4.770  0.4088E+00  0.5454E+01
  -4.760  0.3897E+00  0.5458E+01
  -4.750  0.3690E+00  0.5462E+01
  -4.740  0.3473E+00  0.5465E+01
  -4.730  0.3251E+00  0.5468E+01
  -4.720  0.3030E+00  0.5471E+01
  -4.710  0.2814E+00  0.5474E+01
  -4.700  0.2608E+00  0.5477E+01
  -4.690  0.2415E+00  0.5479E+01
  -4.680  0.2239E+00  0.5482E+01
  -4.670  0.2081E+00  0.5484E+01
  -4.660  0.1942E+00  0.5486E+01
  -4.650  0.1824E+00  0.5487E+01
  -4.640  0.1727E+00  0.5489E+01
  -4.630  0.1650E+00  0.5491E+01
  -4.620  0.1593E+00  0.5492E+01
  -4.610  0.1554E+00  0.5494E+01
  -4.600  0.1534E+00  0.5495E+01
  -4.590  0.1531E+00  0.5497E+01
  -4.580  0.1543E+00  0.5499E+01
  -4.570  0.1571E+00  0.5500E+01
  -4.560  0.1613E+00  0.5502E+01
  -4.550  0.1668E+00  0.5503E+01
  -4.540  0.1736E+00  0.5505E+01
  -4.530  0.1815E+00  0.5507E+01
  -4.520  0.1904E+00  0.5509E+01
  -4.510  0.2004E+00  0.5511E+01
  -4.500  0.2112E+00  0.5513E+01
  -4.490  0.2227E+00  0.5515E+01
  -4.480  0.2350E+00  0.5518E+01
  -4.470  0.2479E+00  0.5520E+01
  -4.460  0.2614E+00  0.5523E+01
  -4.450  0.2752E+00  0.5525E+01
  -4.440  0.2894E+00  0.5528E+01
  -4.430  0.3039E+00  0.5531E+01
  -4.420  0.3186E+00  0.5534E+01
  -4.410  0.3333E+00  0.5538E+01
  -4.400  0.3479E+00  0.5541E+01
  -4.390  0.3622E+00  0.5545E+01
  -4.380  0.3761E+00  0.5549E+01
  -4.370  0.3894E+00  0.5553E+01
  -4.360  0.4018E+00  0.5557E+01
  -4.350  0.4130E+00  0.5561E+01
  -4.340  0.4228E+00  0.5565E+01
  -4.330  0.4309E+00  0.5569E+01
  -4.320  0.4369E+00  0.5574E+01
  -4.310  0.4407E+00  0.5578E+01
  -4.300  0.4420E+00  0.5582E+01
  -4.290  0.4406E+00  0.5587E+01
  -4.280  0.4363E+00  0.5591E+01
  -4.270  0.4291E+00  0.5596E+01
  -4.260  0.4191E+00  0.5600E+01
  -4.250  0.4062E+00  0.5604E+01
  -4.240  0.3907E+00  0.5608E+01
  -4.230  0.3728E+00  0.5611E+01
  -4.220  0.3529E+00  0.5615E+01
  -4.210  0.3313E+00  0.5618E+01
  -4.200  0.3084E+00  0.5621E+01
  -4.190  0.2847E+00  0.5624E+01
  -4.180  0.2605E+00  0.5627E+01
  -4.170  0.2365E+00  0.5629E+01
  -4.160  0.2129E+00  0.5631E+01
  -4.150  0.1902E+00  0.5633E+01
  -4.140  0.1688E+00  0.5635E+01
  -4.130  0.1489E+00  0.5636E+01
  -4.120  0.1308E+00  0.5638E+01
  -4.110  0.1148E+00  0.5639E+01
  -4.100  0.1008E+00  0.5640E+01
  -4.090  0.8909E-01  0.5641E+01
  -4.080  0.7964E-01  0.5642E+01
  -4.070  0.7245E-01  0.5642E+01
  -4.060  0.6746E-01  0.5643E+01
  -4.050  0.6461E-01  0.5644E+01
  -4.040  0.6378E-01  0.5644E+01
  -4.030  0.6482E-01  0.5645E+01
  -4.020  0.6757E-01  0.5646E+01
  -4.010  0.7182E-01  0.5646E+01
  -4.000  0.7737E-01  0.5647E+01
  -3.990  0.8397E-01  0.5648E+01
  -3.980  0.9137E-01  0.5649E+01
  -3.970  0.9930E-01  0.5650E+01
  -3.960  0.1075E+00  0.5651E+01
  -3.950  0.1157E+00  0.5652E+01
  -3.940  0.1235E+00  0.5653E+01
  -3.930  0.1308E+00  0.5655E+01
  -3.920  0.1374E+00  0.5656E+01
  -3.910  0.1429E+00  0.5657E+01
  -3.900  0.1473E+00  0.5659E+01
  -3.890  0.1504E+00  0.5660E+01
  -3.880  0.1522E+00  0.5662E+01
  -3.870  0.1526E+00  0.5663E+01
  -3.860  0.1518E+00  0.5665E+01
  -3.850  0.1497E+00  0.5666E+01
  -3.840  0.1466E+00  0.5668E+01
  -3.830  0.1427E+00  0.5669E+01
  -3.820  0.1381E+00  0.5671E+01
  -3.810  0.1330E+00  0.5672E+01
  -3.800  0.1277E+00  0.5673E+01
  -3.790  0.1224E+00  0.5674E+01
  -3.780  0.1173E+00  0.5676E+01
  -3.770  0.1126E+00  0.5677E+01
  -3.760  0.1083E+00  0.5678E+01
  -3.750  0.1045E+00  0.5679E+01
  -3.740  0.1014E+00  0.5680E+01
  -3.730  0.9880E-01  0.5681E+01
  -3.720  0.9681E-01  0.5682E+01
  -3.710  0.9533E-01  0.5683E+01
  -3.700  0.9427E-01  0.5684E+01
  -3.690  0.9355E-01  0.5685E+01
  -3.680  0.9307E-01  0.5686E+01
  -3.670  0.9274E-01  0.5687E+01
  -3.660  0.9247E-01  0.5687E+01
  -3.650  0.9221E-01  0.5688E+01
  -3.640  0.9192E-01  0.5689E+01
  -3.630  0.9156E-01  0.5690E+01
  -3.620  0.9115E-01  0.5691E+01
  -3.610  0.9069E-01  0.5692E+01
  -3.600  0.9021E-01  0.5693E+01
  -3.590  0.8974E-01  0.5694E+01
  -3.580  0.8932E-01  0.5695E+01
  -3.570  0.8898E-01  0.5696E+01
  -3.560  0.8872E-01  0.5697E+01
  -3.550  0.8856E-01  0.5697E+01
  -3.540  0.8847E-01  0.5698E+01
  -3.530  0.8843E-01  0.5699E+01
  -3.520  0.8838E-01  0.5700E+01
  -3.510  0.8828E-01  0.5701E+01
  -3.500  0.8804E-01  0.5702E+01
  -3.490  0.8760E-01  0.5703E+01
  -3.480  0.8690E-01  0.5704E+01
  -3.470  0.8587E-01  0.5704E+01
  -3.460  0.8448E-01  0.5705E+01
  -3.450  0.8271E-01  0.5706E+01
  -3.440  0.8057E-01  0.5707E+01
  -3.430  0.7808E-01  0.5708E+01
  -3.420  0.7532E-01  0.5708E+01
  -3.410  0.7236E-01  0.5709E+01
  -3.400  0.6932E-01  0.5710E+01
  -3.390  0.6633E-01  0.5711E+01
  -3.380  0.6353E-01  0.5711E+01
  -3.370  0.6108E-01  0.5712E+01
  -3.360  0.5912E-01  0.5712E+01
  -3.350  0.5781E-01  0.5713E+01
  -3.340  0.5727E-01  0.5714E+01
  -3.330  0.5763E-01  0.5714E+01
  -3.320  0.5895E-01  0.5715E+01
  -3.310  0.6131E-01  0.5715E+01
  -3.300  0.6471E-01  0.5716E+01
  -3.290  0.6914E-01  0.5717E+01
  -3.280  0.7453E-01  0.5717E+01
  -3.270  0.8077E-01  0.5718E+01
  -3.260  0.8772E-01  0.5719E+01
  -3.250  0.9520E-01  0.5720E+01
  -3.240  0.1030E+00  0.5721E+01
  -3.230  0.1109E+00  0.5722E+01
  -3.220  0.1186E+00  0.5723E+01
  -3.210  0.1258E+00  0.5725E+01
  -3.200  0.1324E+00  0.5726E+01
  -3.190  0.1381E+00  0.5727E+01
  -3.180  0.1426E+00  0.5729E+01
  -3.170  0.1458E+00  0.5730E+01
  -3.160  0.1476E+00  0.5732E+01
  -3.150  0.1478E+00  0.5733E+01
  -3.140  0.1466E+00  0.5735E+01
  -3.130  0.1438E+00  0.5736E+01
  -3.120  0.1395E+00  0.5737E+01
  -3.110  0.1340E+00  0.5739E+01
  -3.100  0.1273E+00  0.5740E+01
  -3.090  0.1196E+00  0.5741E+01
  -3.080  0.1112E+00  0.5742E+01
  -3.070  0.1023E+00  0.5743E+01
  -3.060  0.9311E-01  0.5744E+01
  -3.050  0.8381E-01  0.5745E+01
  -3.040  0.7464E-01  0.5746E+01
  -3.030  0.6576E-01  0.5747E+01
  -3.020  0.5731E-01  0.5747E+01
  -3.010  0.4941E-01  0.5748E+01
  -3.000  0.4214E-01  0.5748E+01
  -2.990  0.3556E-01  0.5748E+01
  -2.980  0.2968E-01  0.5749E+01
  -2.970  0.2451E-01  0.5749E+01
  -2.960  0.2002E-01  0.5749E+01
  -2.950  0.1617E-01  0.5749E+01
  -2.940  0.1293E-01  0.5749E+01
  -2.930  0.1022E-01  0.5750E+01
  -2.920  0.7998E-02  0.5750E+01
  -2.910  0.6190E-02  0.5750E+01
  -2.900  0.4739E-02  0.5750E+01
  -2.890  0.3589E-02  0.5750E+01
  -2.880  0.2689E-02  0.5750E+01
  -2.870  0.1993E-02  0.5750E+01
  -2.860  0.1461E-02  0.5750E+01
  -2.850  0.1060E-02  0.5750E+01
  -2.840  0.7603E-03  0.5750E+01
  -2.830  0.5397E-03  0.5750E+01
  -2.820  0.3789E-03  0.5750E+01
  -2.810  0.2632E-03  0.5750E+01
  -2.800  0.1809E-03  0.5750E+01
  -2.790  0.1230E-03  0.5750E+01
  -2.780  0.8269E-04  0.5750E+01
  -2.770  0.5501E-04  0.5750E+01
  -2.760  0.3620E-04  0.5750E+01
  -2.750  0.2357E-04  0.5750E+01
  -2.740  0.1518E-04  0.5750E+01
  -2.730  0.9670E-05  0.5750E+01
  -2.720  0.6095E-05  0.5750E+01
  -2.710  0.3800E-05  0.5750E+01
  -2.700  0.2344E-05  0.5750E+01
  -2.690  0.1430E-05  0.5750E+01
  -2.680  0.8633E-06  0.5750E+01
  -2.670  0.5156E-06  0.5750E+01
  -2.660  0.3049E-06  0.5750E+01
  -2.650  0.1787E-06  0.5750E+01
  -2.640  0.1044E-06  0.5750E+01
  -2.630  0.6164E-07  0.5750E+01
  -2.620  0.3850E-07  0.5750E+01
  -2.610  0.2817E-07  0.5750E+01
  -2.600  0.2758E-07  0.5750E+01
  -2.590  0.3655E-07  0.5750E+01
  -2.580  0.5776E-07  0.5750E+01
  -2.570  0.9743E-07  0.5750E+01
  -2.560  0.1668E-06  0.5750E+01
  -2.550  0.2848E-06  0.5750E+01
  -2.540  0.4823E-06  0.5750E+01
  -2.530  0.8086E-06  0.5750E+01
  -2.520  0.1341E-05  0.5750E+01
  -2.510  0.2201E-05  0.5750E+01
  -2.500  0.3574E-05  0.5750E+01
  -2.490  0.5740E-05  0.5750E+01
  -2.480  0.9119E-05  0.5750E+01
  -2.470  0.1433E-04  0.5750E+01
  -2.460  0.2229E-04  0.5750E+01
  -2.450  0.3428E-04  0.5750E+01
  -2.440  0.5216E-04  0.5750E+01
  -2.430  0.7852E-04  0.5750E+01
  -2.420  0.1169E-03  0.5750E+01
  -2.410  0.1722E-03  0.5750E+01
  -2.400  0.2510E-03  0.5750E+01
  -2.390  0.3619E-03  0.5750E+01
  -2.380  0.5161E-03  0.5750E+01
  -2.370  0.7281E-03  0.5750E+01
  -2.360  0.1016E-02  0.5750E+01
  -2.350  0.1403E-02  0.5750E+01
  -2.340  0.1916E-02  0.5750E+01
  -2.330  0.2589E-02  0.5750E+01
  -2.320  0.3460E-02  0.5750E+01
  -2.310  0.4575E-02  0.5750E+01
  -2.300  0.5985E-02  0.5750E+01
  -2.290  0.7744E-02  0.5750E+01
  -2.280  0.9914E-02  0.5750E+01
  -2.270  0.1255E-01  0.5750E+01
  -2.260  0.1573E-01  0.5751E+01
  -2.250  0.1949E-01  0.5751E+01
  -2.240  0.2389E-01  0.5751E+01
  -2.230  0.2898E-01  0.5751E+01
  -2.220  0.3477E-01  0.5752E+01
  -2.210  0.4126E-01  0.5752E+01
  -2.200  0.4845E-01  0.5753E+01
  -2.190  0.5628E-01  0.5753E+01
  -2.180  0.6467E-01  0.5754E+01
  -2.170  0.7351E-01  0.5754E+01
  -2.160  0.8267E-01  0.5755E+01
  -2.150  0.9198E-01  0.5756E+01
  -2.140  0.1012E+00  0.5757E+01
  -2.130  0.1103E+00  0.5758E+01
  -2.120  0.1188E+00  0.5760E+01
  -2.110  0.1266E+00  0.5761E+01
  -2.100  0.1336E+00  0.5762E+01
  -2.090  0.1394E+00  0.5764E+01
  -2.080  0.1440E+00  0.5765E+01
  -2.070  0.1472E+00  0.5766E+01
  -2.060  0.1490E+00  0.5768E+01
  -2.050  0.1493E+00  0.5769E+01
  -2.040  0.1482E+00  0.5771E+01
  -2.030  0.1457E+00  0.5772E+01
  -2.020  0.1420E+00  0.5774E+01
  -2.010  0.1373E+00  0.5775E+01
  -2.000  0.1317E+00  0.5776E+01
  -1.990  0.1256E+00  0.5778E+01
  -1.980  0.1191E+00  0.5779E+01
  -1.970  0.1125E+00  0.5780E+01
  -1.960  0.1061E+00  0.5781E+01
  -1.950  0.1000E+00  0.5782E+01
  -1.940  0.9452E-01  0.5783E+01
  -1.930  0.8968E-01  0.5784E+01
  -1.920  0.8563E-01  0.5785E+01
  -1.910  0.8240E-01  0.5786E+01
  -1.900  0.8001E-01  0.5786E+01
  -1.890  0.7842E-01  0.5787E+01
  -1.880  0.7755E-01  0.5788E+01
  -1.870  0.7730E-01  0.5789E+01
  -1.860  0.7753E-01  0.5790E+01
  -1.850  0.7810E-01  0.5790E+01
  -1.840  0.7887E-01  0.5791E+01
  -1.830  0.7969E-01  0.5792E+01
  -1.820  0.8043E-01  0.5793E+01
  -1.810  0.8099E-01  0.5794E+01
  -1.800  0.8130E-01  0.5794E+01
  -1.790  0.8130E-01  0.5795E+01
  -1.780  0.8100E-01  0.5796E+01
  -1.770  0.8040E-01  0.5797E+01
  -1.760  0.7958E-01  0.5798E+01
  -1.750  0.7862E-01  0.5798E+01
  -1.740  0.7762E-01  0.5799E+01
  -1.730  0.7672E-01  0.5800E+01
  -1.720  0.7605E-01  0.5801E+01
  -1.710  0.7575E-01  0.5801E+01
  -1.700  0.7596E-01  0.5802E+01
  -1.690  0.7678E-01  0.5803E+01
  -1.680  0.7834E-01  0.5804E+01
  -1.670  0.8070E-01  0.5805E+01
  -1.660  0.8392E-01  0.5805E+01
  -1.650  0.8802E-01  0.5806E+01
  -1.640  0.9299E-01  0.5807E+01
  -1.630  0.9879E-01  0.5808E+01
  -1.620  0.1053E+00  0.5809E+01
  -1.610  0.1126E+00  0.5810E+01
  -1.600  0.1203E+00  0.5812E+01
  -1.590  0.1285E+00  0.5813E+01
  -1.580  0.1368E+00  0.5814E+01
  -1.570  0.1453E+00  0.5816E+01
  -1.560  0.1536E+00  0.5817E+01
  -1.550  0.1615E+00  0.5819E+01
  -1.540  0.1690E+00  0.5820E+01
  -1.530  0.1757E+00  0.5822E+01
  -1.520  0.1815E+00  0.5824E+01
  -1.510  0.1863E+00  0.5826E+01
  -1.500  0.1898E+00  0.5828E+01
  -1.490  0.1921E+00  0.5830E+01
  -1.480  0.1929E+00  0.5832E+01
  -1.470  0.1922E+00  0.5834E+01
  -1.460  0.1900E+00  0.5835E+01
  -1.450  0.1864E+00  0.5837E+01
  -1.440  0.1814E+00  0.5839E+01
  -1.430  0.1751E+00  0.5841E+01
  -1.420  0.1676E+00  0.5843E+01
  -1.410  0.1593E+00  0.5844E+01
  -1.400  0.1503E+00  0.5846E+01
  -1.390  0.1408E+00  0.5847E+01
  -1.380  0.1312E+00  0.5848E+01
  -1.370  0.1217E+00  0.5850E+01
  -1.360  0.1128E+00  0.5851E+01
  -1.350  0.1046E+00  0.5852E+01
  -1.340  0.9751E-01  0.5853E+01
  -1.330  0.9186E-01  0.5854E+01
  -1.320  0.8793E-01  0.5855E+01
  -1.310  0.8602E-01  0.5855E+01
  -1.300  0.8640E-01  0.5856E+01
  -1.290  0.8934E-01  0.5857E+01
  -1.280  0.9505E-01  0.5858E+01
  -1.270  0.1038E+00  0.5859E+01
  -1.260  0.1156E+00  0.5860E+01
  -1.250  0.1308E+00  0.5862E+01
  -1.240  0.1493E+00  0.5863E+01
  -1.230  0.1712E+00  0.5865E+01
  -1.220  0.1966E+00  0.5867E+01
  -1.210  0.2252E+00  0.5869E+01
  -1.200  0.2569E+00  0.5872E+01
  -1.190  0.2915E+00  0.5875E+01
  -1.180  0.3287E+00  0.5878E+01
  -1.170  0.3681E+00  0.5882E+01
  -1.160  0.4092E+00  0.5886E+01
  -1.150  0.4515E+00  0.5890E+01
  -1.140  0.4944E+00  0.5895E+01
  -1.130  0.5373E+00  0.5900E+01
  -1.120  0.5795E+00  0.5906E+01
  -1.110  0.6204E+00  0.5912E+01
  -1.100  0.6593E+00  0.5919E+01
  -1.090  0.6955E+00  0.5926E+01
  -1.080  0.7285E+00  0.5933E+01
  -1.070  0.7577E+00  0.5941E+01
  -1.060  0.7826E+00  0.5949E+01
  -1.050  0.8028E+00  0.5957E+01
  -1.040  0.8179E+00  0.5965E+01
  -1.030  0.8278E+00  0.5973E+01
  -1.020  0.8324E+00  0.5981E+01
  -1.010  0.8316E+00  0.5990E+01
  -1.000  0.8255E+00  0.5998E+01
  -0.990  0.8145E+00  0.6006E+01
  -0.980  0.7987E+00  0.6014E+01
  -0.970  0.7788E+00  0.6022E+01
  -0.960  0.7551E+00  0.6030E+01
  -0.950  0.7283E+00  0.6037E+01
  -0.940  0.6991E+00  0.6044E+01
  -0.930  0.6682E+00  0.6050E+01
  -0.920  0.6362E+00  0.6057E+01
  -0.910  0.6040E+00  0.6063E+01
  -0.900  0.5721E+00  0.6069E+01
  -0.890  0.5413E+00  0.6074E+01
  -0.880  0.5120E+00  0.6079E+01
  -0.870  0.4848E+00  0.6084E+01
  -0.860  0.4599E+00  0.6089E+01
  -0.850  0.4376E+00  0.6093E+01
  -0.840  0.4181E+00  0.6097E+01
  -0.830  0.4013E+00  0.6101E+01
  -0.820  0.3872E+00  0.6105E+01
  -0.810  0.3757E+00  0.6109E+01
  -0.800  0.3665E+00  0.6112E+01
  -0.790  0.3593E+00  0.6116E+01
  -0.780  0.3538E+00  0.6120E+01
  -0.770  0.3498E+00  0.6123E+01
  -0.760  0.3469E+00  0.6127E+01
  -0.750  0.3449E+00  0.6130E+01
  -0.740  0.3436E+00  0.6133E+01
  -0.730  0.3428E+00  0.6137E+01
  -0.720  0.3425E+00  0.6140E+01
  -0.710  0.3425E+00  0.6144E+01
  -0.700  0.3429E+00  0.6147E+01
  -0.690  0.3436E+00  0.6151E+01
  -0.680  0.3448E+00  0.6154E+01
  -0.670  0.3465E+00  0.6157E+01
  -0.660  0.3487E+00  0.6161E+01
  -0.650  0.3515E+00  0.6164E+01
  -0.640  0.3548E+00  0.6168E+01
  -0.630  0.3587E+00  0.6172E+01
  -0.620  0.3631E+00  0.6175E+01
  -0.610  0.3679E+00  0.6179E+01
  -0.600  0.3729E+00  0.6183E+01
  -0.590  0.3780E+00  0.6186E+01
  -0.580  0.3830E+00  0.6190E+01
  -0.570  0.3876E+00  0.6194E+01
  -0.560  0.3916E+00  0.6198E+01
  -0.550  0.3950E+00  0.6202E+01
  -0.540  0.3976E+00  0.6206E+01
  -0.530  0.3991E+00  0.6210E+01
  -0.520  0.3996E+00  0.6214E+01
  -0.510  0.3991E+00  0.6218E+01
  -0.500  0.3975E+00  0.6222E+01
  -0.490  0.3949E+00  0.6226E+01
  -0.480  0.3915E+00  0.6230E+01
  -0.470  0.3872E+00  0.6234E+01
  -0.460  0.3824E+00  0.6237E+01
  -0.450  0.3770E+00  0.6241E+01
  -0.440  0.3713E+00  0.6245E+01
  -0.430  0.3653E+00  0.6249E+01
  -0.420  0.3593E+00  0.6252E+01
  -0.410  0.3531E+00  0.6256E+01
  -0.400  0.3470E+00  0.6259E+01
  -0.390  0.3410E+00  0.6263E+01
  -0.380  0.3350E+00  0.6266E+01
  -0.370  0.3291E+00  0.6269E+01
  -0.360  0.3232E+00  0.6273E+01
  -0.350  0.3173E+00  0.6276E+01
  -0.340  0.3113E+00  0.6279E+01
  -0.330  0.3052E+00  0.6282E+01
  -0.320  0.2989E+00  0.6285E+01
  -0.310  0.2924E+00  0.6288E+01
  -0.300  0.2857E+00  0.6291E+01
  -0.290  0.2788E+00  0.6293E+01
  -0.280  0.2717E+00  0.6296E+01
  -0.270  0.2644E+00  0.6299E+01
  -0.260  0.2571E+00  0.6301E+01
  -0.250  0.2498E+00  0.6304E+01
  -0.240  0.2426E+00  0.6306E+01
  -0.230  0.2356E+00  0.6309E+01
  -0.220  0.2289E+00  0.6311E+01
  -0.210  0.2227E+00  0.6313E+01
  -0.200  0.2171E+00  0.6315E+01
  -0.190  0.2122E+00  0.6317E+01
  -0.180  0.2081E+00  0.6320E+01
  -0.170  0.2048E+00  0.6322E+01
  -0.160  0.2024E+00  0.6324E+01
  -0.150  0.2010E+00  0.6326E+01
  -0.140  0.2005E+00  0.6328E+01
  -0.130  0.2009E+00  0.6330E+01
  -0.120  0.2023E+00  0.6332E+01
  -0.110  0.2045E+00  0.6334E+01
  -0.100  0.2075E+00  0.6336E+01
  -0.090  0.2113E+00  0.6338E+01
  -0.080  0.2158E+00  0.6340E+01
  -0.070  0.2212E+00  0.6342E+01
  -0.060  0.2273E+00  0.6345E+01
  -0.050  0.2342E+00  0.6347E+01
  -0.040  0.2420E+00  0.6349E+01
  -0.030  0.2508E+00  0.6352E+01
  -0.020  0.2607E+00  0.6354E+01
  -0.010  0.2717E+00  0.6357E+01
   0.000  0.2840E+00  0.6360E+01
   0.010  0.2975E+00  0.6363E+01
   0.020  0.3123E+00  0.6366E+01
   0.030  0.3283E+00  0.6369E+01
   0.040  0.3454E+00  0.6373E+01
   0.050  0.3634E+00  0.6376E+01
   0.060  0.3820E+00  0.6380E+01
   0.070  0.4009E+00  0.6384E+01
   0.080  0.4197E+00  0.6388E+01
   0.090  0.4380E+00  0.6393E+01
   0.100  0.4553E+00  0.6397E+01
   0.110  0.4711E+00  0.6402E+01
   0.120  0.4849E+00  0.6407E+01
   0.130  0.4965E+00  0.6412E+01
   0.140  0.5052E+00  0.6417E+01
   0.150  0.5110E+00  0.6422E+01
   0.160  0.5136E+00  0.6427E+01
   0.170  0.5128E+00  0.6432E+01
   0.180  0.5087E+00  0.6437E+01
   0.190  0.5012E+00  0.6442E+01
   0.200  0.4907E+00  0.6447E+01
   0.210  0.4772E+00  0.6452E+01
   0.220  0.4612E+00  0.6457E+01
   0.230  0.4429E+00  0.6461E+01
   0.240  0.4227E+00  0.6465E+01
   0.250  0.4011E+00  0.6469E+01
   0.260  0.3785E+00  0.6473E+01
   0.270  0.3552E+00  0.6477E+01
   0.280  0.3316E+00  0.6480E+01
   0.290  0.3083E+00  0.6483E+01
   0.300  0.2855E+00  0.6486E+01
   0.310  0.2636E+00  0.6489E+01
   0.320  0.2429E+00  0.6491E+01
   0.330  0.2237E+00  0.6493E+01
   0.340  0.2064E+00  0.6495E+01
   0.350  0.1911E+00  0.6497E+01
   0.360  0.1782E+00  0.6499E+01
   0.370  0.1677E+00  0.6501E+01
   0.380  0.1598E+00  0.6502E+01
   0.390  0.1547E+00  0.6504E+01
   0.400  0.1523E+00  0.6505E+01
   0.410  0.1526E+00  0.6507E+01
   0.420  0.1556E+00  0.6508E+01
   0.430  0.1612E+00  0.6510E+01
   0.440  0.1692E+00  0.6512E+01
   0.450  0.1793E+00  0.6514E+01
   0.460  0.1912E+00  0.6515E+01
   0.470  0.2046E+00  0.6518E+01
   0.480  0.2191E+00  0.6520E+01
   0.490  0.2344E+00  0.6522E+01
   0.500  0.2502E+00  0.6525E+01
   0.510  0.2659E+00  0.6527E+01
   0.520  0.2813E+00  0.6530E+01
   0.530  0.2962E+00  0.6533E+01
   0.540  0.3102E+00  0.6536E+01
   0.550  0.3232E+00  0.6539E+01
   0.560  0.3351E+00  0.6543E+01
   0.570  0.3458E+00  0.6546E+01
   0.580  0.3554E+00  0.6550E+01
   0.590  0.3639E+00  0.6553E+01
   0.600  0.3715E+00  0.6557E+01
   0.610  0.3782E+00  0.6561E+01
   0.620  0.3843E+00  0.6565E+01
   0.630  0.3898E+00  0.6569E+01
   0.640  0.3950E+00  0.6572E+01
   0.650  0.3998E+00  0.6576E+01
   0.660  0.4045E+00  0.6581E+01
   0.670  0.4090E+00  0.6585E+01
   0.680  0.4133E+00  0.6589E+01
   0.690  0.4175E+00  0.6593E+01
   0.700  0.4214E+00  0.6597E+01
   0.710  0.4250E+00  0.6601E+01
   0.720  0.4283E+00  0.6606E+01
   0.730  0.4313E+00  0.6610E+01
   0.740  0.4339E+00  0.6614E+01
   0.750  0.4362E+00  0.6619E+01
   0.760  0.4382E+00  0.6623E+01
   0.770  0.4402E+00  0.6627E+01
   0.780  0.4422E+00  0.6632E+01
   0.790  0.4444E+00  0.6636E+01
   0.800  0.4472E+00  0.6641E+01
   0.810  0.4506E+00  0.6645E+01
   0.820  0.4549E+00  0.6650E+01
   0.830  0.4601E+00  0.6654E+01
   0.840  0.4666E+00  0.6659E+01
   0.850  0.4741E+00  0.6664E+01
   0.860  0.4828E+00  0.6669E+01
   0.870  0.4923E+00  0.6674E+01
   0.880  0.5026E+00  0.6679E+01
   0.890  0.5133E+00  0.6684E+01
   0.900  0.5239E+00  0.6689E+01
   0.910  0.5341E+00  0.6694E+01
   0.920  0.5435E+00  0.6700E+01
   0.930  0.5514E+00  0.6705E+01
   0.940  0.5577E+00  0.6711E+01
   0.950  0.5617E+00  0.6717E+01
   0.960  0.5634E+00  0.6722E+01
   0.970  0.5626E+00  0.6728E+01
   0.980  0.5592E+00  0.6733E+01
   0.990  0.5533E+00  0.6739E+01
   1.000  0.5453E+00  0.6744E+01
   1.010  0.5354E+00  0.6750E+01
   1.020  0.5241E+00  0.6755E+01
   1.030  0.5121E+00  0.6760E+01
   1.040  0.5000E+00  0.6765E+01
   1.050  0.4884E+00  0.6770E+01
   1.060  0.4779E+00  0.6775E+01
   1.070  0.4692E+00  0.6779E+01
   1.080  0.4628E+00  0.6784E+01
   1.090  0.4591E+00  0.6789E+01
   1.100  0.4584E+00  0.6793E+01
   1.110  0.4608E+00  0.6798E+01
   1.120  0.4663E+00  0.6802E+01
   1.130  0.4748E+00  0.6807E+01
   1.140  0.4859E+00  0.6812E+01
   1.150  0.4993E+00  0.6817E+01
   1.160  0.5145E+00  0.6822E+01
   1.170  0.5308E+00  0.6828E+01
   1.180  0.5477E+00  0.6833E+01
   1.190  0.5645E+00  0.6839E+01
   1.200  0.5806E+00  0.6844E+01
   1.210  0.5956E+00  0.6850E+01
   1.220  0.6089E+00  0.6857E+01
   1.230  0.6203E+00  0.6863E+01
   1.240  0.6295E+00  0.6869E+01
   1.250  0.6364E+00  0.6875E+01
   1.260  0.6411E+00  0.6882E+01
   1.270  0.6436E+00  0.6888E+01
   1.280  0.6442E+00  0.6895E+01
   1.290  0.6433E+00  0.6901E+01
   1.300  0.6411E+00  0.6908E+01
   1.310  0.6381E+00  0.6914E+01
   1.320  0.6348E+00  0.6920E+01
   1.330  0.6313E+00  0.6927E+01
   1.340  0.6282E+00  0.6933E+01
   1.350  0.6257E+00  0.6939E+01
   1.360  0.6240E+00  0.6945E+01
   1.370  0.6232E+00  0.6952E+01
   1.380  0.6235E+00  0.6958E+01
   1.390  0.6249E+00  0.6964E+01
   1.400  0.6274E+00  0.6970E+01
   1.410  0.6308E+00  0.6977E+01
   1.420  0.6352E+00  0.6983E+01
   1.430  0.6402E+00  0.6989E+01
   1.440  0.6460E+00  0.6996E+01
   1.450  0.6523E+00  0.7002E+01
   1.460  0.6591E+00  0.7009E+01
   1.470  0.6662E+00  0.7016E+01
   1.480  0.6737E+00  0.7022E+01
   1.490  0.6816E+00  0.7029E+01
   1.500  0.6896E+00  0.7036E+01
   1.510  0.6980E+00  0.7043E+01
   1.520  0.7065E+00  0.7050E+01
   1.530  0.7152E+00  0.7057E+01
   1.540  0.7240E+00  0.7065E+01
   1.550  0.7328E+00  0.7072E+01
   1.560  0.7415E+00  0.7079E+01
   1.570  0.7500E+00  0.7087E+01
   1.580  0.7584E+00  0.7094E+01
   1.590  0.7663E+00  0.7102E+01
   1.600  0.7740E+00  0.7110E+01
   1.610  0.7813E+00  0.7118E+01
   1.620  0.7884E+00  0.7125E+01
   1.630  0.7953E+00  0.7133E+01
   1.640  0.8023E+00  0.7141E+01
   1.650  0.8097E+00  0.7150E+01
   1.660  0.8178E+00  0.7158E+01
   1.670  0.8270E+00  0.7166E+01
   1.680  0.8376E+00  0.7174E+01
   1.690  0.8502E+00  0.7183E+01
   1.700  0.8651E+00  0.7191E+01
   1.710  0.8825E+00  0.7200E+01
   1.720  0.9028E+00  0.7209E+01
   1.730  0.9260E+00  0.7219E+01
   1.740  0.9520E+00  0.7228E+01
   1.750  0.9808E+00  0.7238E+01
   1.760  0.1012E+01  0.7248E+01
   1.770  0.1045E+01  0.7259E+01
   1.780  0.1079E+01  0.7269E+01
   1.790  0.1114E+01  0.7280E+01
   1.800  0.1148E+01  0.7292E+01
   1.810  0.1181E+01  0.7304E+01
   1.820  0.1212E+01  0.7316E+01
   1.830  0.1240E+01  0.7328E+01
   1.840  0.1264E+01  0.7341E+01
   1.850  0.1284E+01  0.7354E+01
   1.860  0.1299E+01  0.7367E+01
   1.870  0.1308E+01  0.7380E+01
   1.880  0.1313E+01  0.7393E+01
   1.890  0.1312E+01  0.7406E+01
   1.900  0.1306E+01  0.7419E+01
   1.910  0.1295E+01  0.7432E+01
   1.920  0.1280E+01  0.7445E+01
   1.930  0.1261E+01  0.7457E+01
   1.940  0.1239E+01  0.7470E+01
   1.950  0.1215E+01  0.7482E+01
   1.960  0.1189E+01  0.7494E+01
   1.970  0.1161E+01  0.7505E+01
   1.980  0.1133E+01  0.7517E+01
   1.990  0.1104E+01  0.7528E+01
   2.000  0.1075E+01  0.7539E+01
   2.010  0.1047E+01  0.7549E+01
   2.020  0.1020E+01  0.7559E+01
   2.030  0.9930E+00  0.7569E+01
   2.040  0.9673E+00  0.7579E+01
   2.050  0.9429E+00  0.7588E+01
   2.060  0.9199E+00  0.7598E+01
   2.070  0.8985E+00  0.7606E+01
   2.080  0.8789E+00  0.7615E+01
   2.090  0.8614E+00  0.7624E+01
   2.100  0.8464E+00  0.7632E+01
   2.110  0.8341E+00  0.7641E+01
   2.120  0.8248E+00  0.7649E+01
   2.130  0.8189E+00  0.7657E+01
   2.140  0.8166E+00  0.7665E+01
   2.150  0.8181E+00  0.7673E+01
   2.160  0.8234E+00  0.7682E+01
   2.170  0.8324E+00  0.7690E+01
   2.180  0.8451E+00  0.7698E+01
   2.190  0.8612E+00  0.7707E+01
   2.200  0.8801E+00  0.7716E+01
   2.210  0.9014E+00  0.7725E+01
   2.220  0.9245E+00  0.7734E+01
   2.230  0.9488E+00  0.7744E+01
   2.240  0.9733E+00  0.7753E+01
   2.250  0.9976E+00  0.7763E+01
   2.260  0.1021E+01  0.7774E+01
   2.270  0.1043E+01  0.7784E+01
   2.280  0.1062E+01  0.7795E+01
   2.290  0.1079E+01  0.7805E+01
   2.300  0.1093E+01  0.7816E+01
   2.310  0.1104E+01  0.7827E+01
   2.320  0.1112E+01  0.7838E+01
   2.330  0.1117E+01  0.7850E+01
   2.340  0.1119E+01  0.7861E+01
   2.350  0.1119E+01  0.7872E+01
   2.360  0.1117E+01  0.7883E+01
   2.370  0.1113E+01  0.7894E+01
   2.380  0.1108E+01  0.7905E+01
   2.390  0.1102E+01  0.7916E+01
   2.400  0.1096E+01  0.7927E+01
   2.410  0.1090E+01  0.7938E+01
   2.420  0.1085E+01  0.7949E+01
   2.430  0.1080E+01  0.7960E+01
   2.440  0.1075E+01  0.7971E+01
   2.450  0.1071E+01  0.7981E+01
   2.460  0.1068E+01  0.7992E+01
   2.470  0.1065E+01  0.8003E+01
   2.480  0.1062E+01  0.8013E+01
   2.490  0.1060E+01  0.8024E+01
   2.500  0.1057E+01  0.8035E+01
   2.510  0.1055E+01  0.8045E+01
   2.520  0.1052E+01  0.8056E+01
   2.530  0.1050E+01  0.8066E+01
   2.540  0.1047E+01  0.8077E+01
   2.550  0.1045E+01  0.8087E+01
   2.560  0.1042E+01  0.8097E+01
   2.570  0.1041E+01  0.8108E+01
   2.580  0.1040E+01  0.8118E+01
   2.590  0.1040E+01  0.8129E+01
   2.600  0.1042E+01  0.8139E+01
   2.610  0.1045E+01  0.8150E+01
   2.620  0.1049E+01  0.8160E+01
   2.630  0.1055E+01  0.8171E+01
   2.640  0.1062E+01  0.8181E+01
   2.650  0.1071E+01  0.8192E+01
   2.660  0.1079E+01  0.8203E+01
   2.670  0.1089E+01  0.8214E+01
   2.680  0.1098E+01  0.8225E+01
   2.690  0.1107E+01  0.8236E+01
   2.700  0.1115E+01  0.8247E+01
   2.710  0.1121E+01  0.8258E+01
   2.720  0.1127E+01  0.8269E+01
   2.730  0.1132E+01  0.8281E+01
   2.740  0.1135E+01  0.8292E+01
   2.750  0.1138E+01  0.8303E+01
   2.760  0.1140E+01  0.8315E+01
   2.770  0.1141E+01  0.8326E+01
   2.780  0.1143E+01  0.8338E+01
   2.790  0.1145E+01  0.8349E+01
   2.800  0.1148E+01  0.8360E+01
   2.810  0.1152E+01  0.8372E+01
   2.820  0.1158E+01  0.8384E+01
   2.830  0.1165E+01  0.8395E+01
   2.840  0.1174E+01  0.8407E+01
   2.850  0.1184E+01  0.8419E+01
   2.860  0.1195E+01  0.8431E+01
   2.870  0.1206E+01  0.8443E+01
   2.880  0.1218E+01  0.8455E+01
   2.890  0.1229E+01  0.8467E+01
   2.900  0.1239E+01  0.8480E+01
   2.910  0.1249E+01  0.8492E+01
   2.920  0.1257E+01  0.8505E+01
   2.930  0.1263E+01  0.8517E+01
   2.940  0.1268E+01  0.8530E+01
   2.950  0.1271E+01  0.8543E+01
   2.960  0.1273E+01  0.8555E+01
   2.970  0.1274E+01  0.8568E+01
   2.980  0.1275E+01  0.8581E+01
   2.990  0.1275E+01  0.8594E+01
   3.000  0.1276E+01  0.8606E+01
   3.010  0.1277E+01  0.8619E+01
   3.020  0.1279E+01  0.8632E+01
   3.030  0.1283E+01  0.8645E+01
   3.040  0.1289E+01  0.8658E+01
   3.050  0.1296E+01  0.8671E+01
   3.060  0.1305E+01  0.8684E+01
   3.070  0.1315E+01  0.8697E+01
   3.080  0.1327E+01  0.8710E+01
   3.090  0.1339E+01  0.8724E+01
   3.100  0.1352E+01  0.8737E+01
   3.110  0.1364E+01  0.8751E+01
   3.120  0.1376E+01  0.8765E+01
   3.130  0.1387E+01  0.8778E+01
   3.140  0.1397E+01  0.8792E+01
   3.150  0.1405E+01  0.8806E+01
   3.160  0.1411E+01  0.8821E+01
   3.170  0.1415E+01  0.8835E+01
   3.180  0.1418E+01  0.8849E+01
   3.190  0.1420E+01  0.8863E+01
   3.200  0.1420E+01  0.8877E+01
   3.210  0.1420E+01  0.8891E+01
   3.220  0.1420E+01  0.8906E+01
   3.230  0.1420E+01  0.8920E+01
   3.240  0.1421E+01  0.8934E+01
   3.250  0.1423E+01  0.8948E+01
   3.260  0.1425E+01  0.8963E+01
   3.270  0.1429E+01  0.8977E+01
   3.280  0.1433E+01  0.8991E+01
   3.290  0.1439E+01  0.9006E+01
   3.300  0.1444E+01  0.9020E+01
   3.310  0.1449E+01  0.9034E+01
   3.320  0.1453E+01  0.9049E+01
   3.330  0.1455E+01  0.9064E+01
   3.340  0.1456E+01  0.9078E+01
   3.350  0.1454E+01  0.9093E+01
   3.360  0.1450E+01  0.9107E+01
   3.370  0.1443E+01  0.9122E+01
   3.380  0.1434E+01  0.9136E+01
   3.390  0.1422E+01  0.9150E+01
   3.400  0.1408E+01  0.9164E+01
   3.410  0.1392E+01  0.9178E+01
   3.420  0.1375E+01  0.9192E+01
   3.430  0.1359E+01  0.9205E+01
   3.440  0.1343E+01  0.9219E+01
   3.450  0.1328E+01  0.9232E+01
   3.460  0.1315E+01  0.9245E+01
   3.470  0.1304E+01  0.9258E+01
   3.480  0.1296E+01  0.9271E+01
   3.490  0.1291E+01  0.9284E+01
   3.500  0.1289E+01  0.9297E+01
   3.510  0.1289E+01  0.9310E+01
   3.520  0.1292E+01  0.9323E+01
   3.530  0.1298E+01  0.9336E+01
   3.540  0.1305E+01  0.9349E+01
   3.550  0.1314E+01  0.9362E+01
   3.560  0.1324E+01  0.9375E+01
   3.570  0.1335E+01  0.9389E+01
   3.580  0.1346E+01  0.9402E+01
   3.590  0.1358E+01  0.9416E+01
   3.600  0.1369E+01  0.9429E+01
   3.610  0.1381E+01  0.9443E+01
   3.620  0.1392E+01  0.9457E+01
   3.630  0.1402E+01  0.9471E+01
   3.640  0.1413E+01  0.9485E+01
   3.650  0.1424E+01  0.9500E+01
   3.660  0.1435E+01  0.9514E+01
   3.670  0.1446E+01  0.9528E+01
   3.680  0.1457E+01  0.9543E+01
   3.690  0.1469E+01  0.9558E+01
   3.700  0.1480E+01  0.9572E+01
   3.710  0.1493E+01  0.9587E+01
   3.720  0.1505E+01  0.9602E+01
   3.730  0.1517E+01  0.9618E+01
   3.740  0.1530E+01  0.9633E+01
   3.750  0.1542E+01  0.9648E+01
   3.760  0.1554E+01  0.9664E+01
   3.770  0.1566E+01  0.9679E+01
   3.780  0.1578E+01  0.9695E+01
   3.790  0.1589E+01  0.9711E+01
   3.800  0.1600E+01  0.9727E+01
   3.810  0.1611E+01  0.9743E+01
   3.820  0.1622E+01  0.9759E+01
   3.830  0.1632E+01  0.9776E+01
   3.840  0.1643E+01  0.9792E+01
   3.850  0.1653E+01  0.9809E+01
   3.860  0.1664E+01  0.9825E+01
   3.870  0.1674E+01  0.9842E+01
   3.880  0.1685E+01  0.9859E+01
   3.890  0.1694E+01  0.9876E+01
   3.900  0.1703E+01  0.9893E+01
   3.910  0.1711E+01  0.9910E+01
   3.920  0.1717E+01  0.9927E+01
   3.930  0.1720E+01  0.9944E+01
   3.940  0.1720E+01  0.9962E+01
   3.950  0.1718E+01  0.9979E+01
   3.960  0.1711E+01  0.9996E+01
   3.970  0.1699E+01  0.1001E+02
   3.980  0.1684E+01  0.1003E+02
   3.990  0.1663E+01  0.1005E+02
   4.000  0.1638E+01  0.1006E+02
   4.010  0.1609E+01  0.1008E+02
   4.020  0.1576E+01  0.1009E+02
   4.030  0.1539E+01  0.1011E+02
   4.040  0.1500E+01  0.1013E+02
   4.050  0.1459E+01  0.1014E+02
   4.060  0.1417E+01  0.1015E+02
   4.070  0.1376E+01  0.1017E+02
   4.080  0.1336E+01  0.1018E+02
   4.090  0.1298E+01  0.1019E+02
   4.100  0.1263E+01  0.1021E+02
   4.110  0.1232E+01  0.1022E+02
   4.120  0.1204E+01  0.1023E+02
   4.130  0.1181E+01  0.1024E+02
   4.140  0.1163E+01  0.1025E+02
   4.150  0.1149E+01  0.1027E+02
   4.160  0.1140E+01  0.1028E+02
   4.170  0.1136E+01  0.1029E+02
   4.180  0.1135E+01  0.1030E+02
   4.190  0.1139E+01  0.1031E+02
   4.200  0.1145E+01  0.1032E+02
   4.210  0.1155E+01  0.1033E+02
   4.220  0.1168E+01  0.1035E+02
   4.230  0.1183E+01  0.1036E+02
   4.240  0.1200E+01  0.1037E+02
   4.250  0.1219E+01  0.1038E+02
   4.260  0.1240E+01  0.1039E+02
   4.270  0.1263E+01  0.1041E+02
   4.280  0.1288E+01  0.1042E+02
   4.290  0.1313E+01  0.1043E+02
   4.300  0.1341E+01  0.1045E+02
   4.310  0.1369E+01  0.1046E+02
   4.320  0.1398E+01  0.1047E+02
   4.330  0.1427E+01  0.1049E+02
   4.340  0.1457E+01  0.1050E+02
   4.350  0.1486E+01  0.1052E+02
   4.360  0.1515E+01  0.1053E+02
   4.370  0.1543E+01  0.1055E+02
   4.380  0.1570E+01  0.1056E+02
   4.390  0.1594E+01  0.1058E+02
   4.400  0.1616E+01  0.1060E+02
   4.410  0.1635E+01  0.1061E+02
   4.420  0.1652E+01  0.1063E+02
   4.430  0.1665E+01  0.1065E+02
   4.440  0.1676E+01  0.1066E+02
   4.450  0.1683E+01  0.1068E+02
   4.460  0.1688E+01  0.1070E+02
   4.470  0.1691E+01  0.1071E+02
   4.480  0.1691E+01  0.1073E+02
   4.490  0.1691E+01  0.1075E+02
   4.500  0.1690E+01  0.1076E+02
   4.510  0.1688E+01  0.1078E+02
   4.520  0.1687E+01  0.1080E+02
   4.530  0.1687E+01  0.1081E+02
   4.540  0.1688E+01  0.1083E+02
   4.550  0.1691E+01  0.1085E+02
   4.560  0.1695E+01  0.1087E+02
   4.570  0.1701E+01  0.1088E+02
   4.580  0.1709E+01  0.1090E+02
   4.590  0.1718E+01  0.1092E+02
   4.600  0.1727E+01  0.1093E+02
   4.610  0.1737E+01  0.1095E+02
   4.620  0.1747E+01  0.1097E+02
   4.630  0.1756E+01  0.1099E+02
   4.640  0.1765E+01  0.1100E+02
   4.650  0.1771E+01  0.1102E+02
   4.660  0.1775E+01  0.1104E+02
   4.670  0.1778E+01  0.1106E+02
   4.680  0.1777E+01  0.1107E+02
   4.690  0.1775E+01  0.1109E+02
   4.700  0.1770E+01  0.1111E+02
   4.710  0.1762E+01  0.1113E+02
   4.720  0.1753E+01  0.1115E+02
   4.730  0.1743E+01  0.1116E+02
   4.740  0.1732E+01  0.1118E+02
   4.750  0.1721E+01  0.1120E+02
   4.760  0.1710E+01  0.1121E+02
   4.770  0.1700E+01  0.1123E+02
   4.780  0.1691E+01  0.1125E+02
   4.790  0.1685E+01  0.1127E+02
   4.800  0.1681E+01  0.1128E+02
   4.810  0.1680E+01  0.1130E+02
   4.820  0.1682E+01  0.1132E+02
   4.830  0.1688E+01  0.1133E+02
   4.840  0.1697E+01  0.1135E+02
   4.850  0.1710E+01  0.1137E+02
   4.860  0.1727E+01  0.1138E+02
   4.870  0.1748E+01  0.1140E+02
   4.880  0.1772E+01  0.1142E+02
   4.890  0.1800E+01  0.1144E+02
   4.900  0.1831E+01  0.1146E+02
   4.910  0.1865E+01  0.1147E+02
   4.920  0.1903E+01  0.1149E+02
   4.930  0.1943E+01  0.1151E+02
   4.940  0.1985E+01  0.1153E+02
   4.950  0.2029E+01  0.1155E+02
   4.960  0.2075E+01  0.1157E+02
   4.970  0.2122E+01  0.1159E+02
   4.980  0.2170E+01  0.1162E+02
   4.990  0.2218E+01  0.1164E+02
   5.000  0.2265E+01  0.1166E+02
   5.010  0.2311E+01  0.1168E+02
   5.020  0.2355E+01  0.1171E+02
   5.030  0.2397E+01  0.1173E+02
   5.040  0.2436E+01  0.1176E+02
   5.050  0.2471E+01  0.1178E+02
   5.060  0.2502E+01  0.1181E+02
   5.070  0.2529E+01  0.1183E+02
   5.080  0.2550E+01  0.1186E+02
   5.090  0.2566E+01  0.1188E+02
   5.100  0.2576E+01  0.1191E+02
   5.110  0.2581E+01  0.1193E+02
   5.120  0.2581E+01  0.1196E+02
   5.130  0.2576E+01  0.1199E+02
   5.140  0.2566E+01  0.1201E+02
   5.150  0.2552E+01  0.1204E+02
   5.160  0.2535E+01  0.1206E+02
   5.170  0.2514E+01  0.1209E+02
   5.180  0.2490E+01  0.1211E+02
   5.190  0.2465E+01  0.1214E+02
   5.200  0.2438E+01  0.1216E+02
   5.210  0.2410E+01  0.1219E+02
   5.220  0.2381E+01  0.1221E+02
   5.230  0.2352E+01  0.1223E+02
   5.240  0.2324E+01  0.1226E+02
   5.250  0.2295E+01  0.1228E+02
   5.260  0.2267E+01  0.1230E+02
   5.270  0.2240E+01  0.1232E+02
   5.280  0.2214E+01  0.1235E+02
   5.290  0.2188E+01  0.1237E+02
   5.300  0.2165E+01  0.1239E+02
   5.310  0.2142E+01  0.1241E+02
   5.320  0.2121E+01  0.1243E+02
   5.330  0.2102E+01  0.1245E+02
   5.340  0.2086E+01  0.1247E+02
   5.350  0.2071E+01  0.1249E+02
   5.360  0.2059E+01  0.1252E+02
   5.370  0.2050E+01  0.1254E+02
   5.380  0.2044E+01  0.1256E+02
   5.390  0.2041E+01  0.1258E+02
   5.400  0.2041E+01  0.1260E+02
   5.410  0.2044E+01  0.1262E+02
   5.420  0.2051E+01  0.1264E+02
   5.430  0.2060E+01  0.1266E+02
   5.440  0.2071E+01  0.1268E+02
   5.450  0.2085E+01  0.1270E+02
   5.460  0.2101E+01  0.1272E+02
   5.470  0.2118E+01  0.1274E+02
   5.480  0.2137E+01  0.1276E+02
   5.490  0.2156E+01  0.1279E+02
   5.500  0.2175E+01  0.1281E+02
   5.510  0.2194E+01  0.1283E+02
   5.520  0.2214E+01  0.1285E+02
   5.530  0.2233E+01  0.1287E+02
   5.540  0.2252E+01  0.1290E+02
   5.550  0.2272E+01  0.1292E+02
   5.560  0.2292E+01  0.1294E+02
   5.570  0.2313E+01  0.1296E+02
   5.580  0.2336E+01  0.1299E+02
   5.590  0.2362E+01  0.1301E+02
   5.600  0.2390E+01  0.1304E+02
   5.610  0.2421E+01  0.1306E+02
   5.620  0.2457E+01  0.1308E+02
   5.630  0.2497E+01  0.1311E+02
   5.640  0.2542E+01  0.1313E+02
   5.650  0.2592E+01  0.1316E+02
   5.660  0.2646E+01  0.1319E+02
   5.670  0.2704E+01  0.1321E+02
   5.680  0.2765E+01  0.1324E+02
   5.690  0.2829E+01  0.1327E+02
   5.700  0.2895E+01  0.1330E+02
   5.710  0.2960E+01  0.1333E+02
   5.720  0.3024E+01  0.1336E+02
   5.730  0.3086E+01  0.1339E+02
   5.740  0.3143E+01  0.1342E+02
   5.750  0.3196E+01  0.1345E+02
   5.760  0.3241E+01  0.1349E+02
   5.770  0.3280E+01  0.1352E+02
   5.780  0.3309E+01  0.1355E+02
   5.790  0.3330E+01  0.1358E+02
   5.800  0.3342E+01  0.1362E+02
   5.810  0.3345E+01  0.1365E+02
   5.820  0.3340E+01  0.1369E+02
   5.830  0.3325E+01  0.1372E+02
   5.840  0.3304E+01  0.1375E+02
   5.850  0.3276E+01  0.1378E+02
   5.860  0.3242E+01  0.1382E+02
   5.870  0.3204E+01  0.1385E+02
   5.880  0.3163E+01  0.1388E+02
   5.890  0.3120E+01  0.1391E+02
   5.900  0.3075E+01  0.1394E+02
   5.910  0.3031E+01  0.1397E+02
   5.920  0.2988E+01  0.1400E+02
   5.930  0.2946E+01  0.1403E+02
   5.940  0.2907E+01  0.1406E+02
   5.950  0.2870E+01  0.1409E+02
   5.960  0.2836E+01  0.1412E+02
   5.970  0.2804E+01  0.1415E+02
   5.980  0.2775E+01  0.1417E+02
   5.990  0.2748E+01  0.1420E+02
   6.000  0.2724E+01  0.1423E+02
   6.010  0.2702E+01  0.1426E+02
   6.020  0.2682E+01  0.1428E+02
   6.030  0.2663E+01  0.1431E+02
   6.040  0.2646E+01  0.1434E+02
   6.050  0.2631E+01  0.1436E+02
   6.060  0.2616E+01  0.1439E+02
   6.070  0.2604E+01  0.1441E+02
   6.080  0.2592E+01  0.1444E+02
   6.090  0.2582E+01  0.1447E+02
   6.100  0.2574E+01  0.1449E+02
   6.110  0.2567E+01  0.1452E+02
   6.120  0.2562E+01  0.1454E+02
   6.130  0.2558E+01  0.1457E+02
   6.140  0.2555E+01  0.1459E+02
   6.150  0.2553E+01  0.1462E+02
   6.160  0.2552E+01  0.1464E+02
   6.170  0.2552E+01  0.1467E+02
   6.180  0.2552E+01  0.1470E+02
   6.190  0.2551E+01  0.1472E+02
   6.200  0.2550E+01  0.1475E+02
   6.210  0.2549E+01  0.1477E+02
   6.220  0.2546E+01  0.1480E+02
   6.230  0.2543E+01  0.1482E+02
   6.240  0.2539E+01  0.1485E+02
   6.250  0.2534E+01  0.1487E+02
   6.260  0.2529E+01  0.1490E+02
   6.270  0.2523E+01  0.1492E+02
   6.280  0.2518E+01  0.1495E+02
   6.290  0.2513E+01  0.1497E+02
   6.300  0.2509E+01  0.1500E+02
   6.310  0.2507E+01  0.1502E+02
   6.320  0.2507E+01  0.1505E+02
   6.330  0.2509E+01  0.1508E+02
   6.340  0.2514E+01  0.1510E+02
   6.350  0.2521E+01  0.1513E+02
   6.360  0.2531E+01  0.1515E+02
   6.370  0.2544E+01  0.1518E+02
   6.380  0.2559E+01  0.1520E+02
   6.390  0.2577E+01  0.1523E+02
   6.400  0.2596E+01  0.1525E+02
   6.410  0.2617E+01  0.1528E+02
   6.420  0.2640E+01  0.1531E+02
   6.430  0.2663E+01  0.1533E+02
   6.440  0.2687E+01  0.1536E+02
   6.450  0.2711E+01  0.1539E+02
   6.460  0.2735E+01  0.1541E+02
   6.470  0.2758E+01  0.1544E+02
   6.480  0.2780E+01  0.1547E+02
   6.490  0.2801E+01  0.1550E+02
   6.500  0.2821E+01  0.1553E+02
   6.510  0.2837E+01  0.1555E+02
   6.520  0.2852E+01  0.1558E+02
   6.530  0.2862E+01  0.1561E+02
   6.540  0.2869E+01  0.1564E+02
   6.550  0.2871E+01  0.1567E+02
   6.560  0.2867E+01  0.1570E+02
   6.570  0.2858E+01  0.1573E+02
   6.580  0.2841E+01  0.1575E+02
   6.590  0.2818E+01  0.1578E+02
   6.600  0.2787E+01  0.1581E+02
   6.610  0.2749E+01  0.1584E+02
   6.620  0.2704E+01  0.1586E+02
   6.630  0.2651E+01  0.1589E+02
   6.640  0.2592E+01  0.1592E+02
   6.650  0.2528E+01  0.1594E+02
   6.660  0.2459E+01  0.1597E+02
   6.670  0.2387E+01  0.1599E+02
   6.680  0.2314E+01  0.1601E+02
   6.690  0.2241E+01  0.1604E+02
   6.700  0.2169E+01  0.1606E+02
   6.710  0.2100E+01  0.1608E+02
   6.720  0.2037E+01  0.1610E+02
   6.730  0.1979E+01  0.1612E+02
   6.740  0.1929E+01  0.1614E+02
   6.750  0.1887E+01  0.1616E+02
   6.760  0.1855E+01  0.1618E+02
   6.770  0.1832E+01  0.1619E+02
   6.780  0.1818E+01  0.1621E+02
   6.790  0.1814E+01  0.1623E+02
   6.800  0.1818E+01  0.1625E+02
   6.810  0.1831E+01  0.1627E+02
   6.820  0.1851E+01  0.1629E+02
   6.830  0.1876E+01  0.1630E+02
   6.840  0.1907E+01  0.1632E+02
   6.850  0.1940E+01  0.1634E+02
   6.860  0.1976E+01  0.1636E+02
   6.870  0.2012E+01  0.1638E+02
   6.880  0.2047E+01  0.1640E+02
   6.890  0.2081E+01  0.1642E+02
   6.900  0.2112E+01  0.1645E+02
   6.910  0.2140E+01  0.1647E+02
   6.920  0.2164E+01  0.1649E+02
   6.930  0.2184E+01  0.1651E+02
   6.940  0.2199E+01  0.1653E+02
   6.950  0.2211E+01  0.1655E+02
   6.960  0.2218E+01  0.1658E+02
   6.970  0.2221E+01  0.1660E+02
   6.980  0.2221E+01  0.1662E+02
   6.990  0.2218E+01  0.1664E+02
   7.000  0.2213E+01  0.1667E+02
   7.010  0.2206E+01  0.1669E+02
   7.020  0.2198E+01  0.1671E+02
   7.030  0.2190E+01  0.1673E+02
   7.040  0.2181E+01  0.1675E+02
   7.050  0.2173E+01  0.1677E+02
   7.060  0.2166E+01  0.1680E+02
   7.070  0.2159E+01  0.1682E+02
   7.080  0.2154E+01  0.1684E+02
   7.090  0.2151E+01  0.1686E+02
   7.100  0.2150E+01  0.1688E+02
   7.110  0.2151E+01  0.1690E+02
   7.120  0.2155E+01  0.1693E+02
   7.130  0.2161E+01  0.1695E+02
   7.140  0.2170E+01  0.1697E+02
   7.150  0.2181E+01  0.1699E+02
   7.160  0.2195E+01  0.1701E+02
   7.170  0.2211E+01  0.1703E+02
   7.180  0.2229E+01  0.1706E+02
   7.190  0.2250E+01  0.1708E+02
   7.200  0.2271E+01  0.1710E+02
   7.210  0.2293E+01  0.1713E+02
   7.220  0.2315E+01  0.1715E+02
   7.230  0.2337E+01  0.1717E+02
   7.240  0.2358E+01  0.1720E+02
   7.250  0.2376E+01  0.1722E+02
   7.260  0.2392E+01  0.1724E+02
   7.270  0.2406E+01  0.1727E+02
   7.280  0.2416E+01  0.1729E+02
   7.290  0.2422E+01  0.1732E+02
   7.300  0.2426E+01  0.1734E+02
   7.310  0.2426E+01  0.1736E+02
   7.320  0.2423E+01  0.1739E+02
   7.330  0.2418E+01  0.1741E+02
   7.340  0.2412E+01  0.1744E+02
   7.350  0.2406E+01  0.1746E+02
   7.360  0.2399E+01  0.1748E+02
   7.370  0.2395E+01  0.1751E+02
   7.380  0.2392E+01  0.1753E+02
   7.390  0.2393E+01  0.1756E+02
   7.400  0.2398E+01  0.1758E+02
   7.410  0.2407E+01  0.1760E+02
   7.420  0.2421E+01  0.1763E+02
   7.430  0.2441E+01  0.1765E+02
   7.440  0.2465E+01  0.1768E+02
   7.450  0.2494E+01  0.1770E+02
   7.460  0.2528E+01  0.1773E+02
   7.470  0.2566E+01  0.1775E+02
   7.480  0.2607E+01  0.1778E+02
   7.490  0.2651E+01  0.1781E+02
   7.500  0.2697E+01  0.1783E+02
   7.510  0.2744E+01  0.1786E+02
   7.520  0.2791E+01  0.1789E+02
   7.530  0.2837E+01  0.1792E+02
   7.540  0.2882E+01  0.1795E+02
   7.550  0.2925E+01  0.1797E+02
   7.560  0.2965E+01  0.1800E+02
   7.570  0.3002E+01  0.1803E+02
   7.580  0.3034E+01  0.1806E+02
   7.590  0.3062E+01  0.1810E+02
   7.600  0.3084E+01  0.1813E+02
   7.610  0.3101E+01  0.1816E+02
   7.620  0.3112E+01  0.1819E+02
   7.630  0.3116E+01  0.1822E+02
   7.640  0.3115E+01  0.1825E+02
   7.650  0.3106E+01  0.1828E+02
   7.660  0.3092E+01  0.1831E+02
   7.670  0.3071E+01  0.1834E+02
   7.680  0.3045E+01  0.1837E+02
   7.690  0.3013E+01  0.1840E+02
   7.700  0.2976E+01  0.1843E+02
   7.710  0.2936E+01  0.1846E+02
   7.720  0.2892E+01  0.1849E+02
   7.730  0.2847E+01  0.1852E+02
   7.740  0.2800E+01  0.1855E+02
   7.750  0.2753E+01  0.1858E+02
   7.760  0.2707E+01  0.1860E+02
   7.770  0.2663E+01  0.1863E+02
   7.780  0.2622E+01  0.1866E+02
   7.790  0.2584E+01  0.1868E+02
   7.800  0.2550E+01  0.1871E+02
   7.810  0.2521E+01  0.1873E+02
   7.820  0.2496E+01  0.1876E+02
   7.830  0.2476E+01  0.1878E+02
   7.840  0.2460E+01  0.1881E+02
   7.850  0.2449E+01  0.1883E+02
   7.860  0.2442E+01  0.1886E+02
   7.870  0.2438E+01  0.1888E+02
   7.880  0.2438E+01  0.1890E+02
   7.890  0.2440E+01  0.1893E+02
   7.900  0.2444E+01  0.1895E+02
   7.910  0.2450E+01  0.1898E+02
   7.920  0.2457E+01  0.1900E+02
   7.930  0.2465E+01  0.1903E+02
   7.940  0.2473E+01  0.1905E+02
   7.950  0.2482E+01  0.1908E+02
   7.960  0.2493E+01  0.1910E+02
   7.970  0.2504E+01  0.1913E+02
   7.980  0.2517E+01  0.1915E+02
   7.990  0.2531E+01  0.1918E+02
   8.000  0.2548E+01  0.1920E+02
   8.010  0.2568E+01  0.1923E+02
   8.020  0.2591E+01  0.1925E+02
   8.030  0.2617E+01  0.1928E+02
   8.040  0.2646E+01  0.1931E+02
   8.050  0.2677E+01  0.1933E+02
   8.060  0.2712E+01  0.1936E+02
   8.070  0.2748E+01  0.1939E+02
   8.080  0.2784E+01  0.1942E+02
   8.090  0.2821E+01  0.1944E+02
   8.100  0.2856E+01  0.1947E+02
   8.110  0.2889E+01  0.1950E+02
   8.120  0.2919E+01  0.1953E+02
   8.130  0.2944E+01  0.1956E+02
   8.140  0.2964E+01  0.1959E+02
   8.150  0.2978E+01  0.1962E+02
   8.160  0.2986E+01  0.1965E+02
   8.170  0.2988E+01  0.1968E+02
   8.180  0.2984E+01  0.1971E+02
   8.190  0.2976E+01  0.1974E+02
   8.200  0.2963E+01  0.1977E+02
   8.210  0.2947E+01  0.1980E+02
   8.220  0.2930E+01  0.1983E+02
   8.230  0.2912E+01  0.1986E+02
   8.240  0.2895E+01  0.1989E+02
   8.250  0.2879E+01  0.1991E+02
   8.260  0.2866E+01  0.1994E+02
   8.270  0.2855E+01  0.1997E+02
   8.280  0.2848E+01  0.2000E+02
   8.290  0.2843E+01  0.2003E+02
   8.300  0.2841E+01  0.2006E+02
   8.310  0.2840E+01  0.2009E+02
   8.320  0.2840E+01  0.2011E+02
   8.330  0.2839E+01  0.2014E+02
   8.340  0.2836E+01  0.2017E+02
   8.350  0.2830E+01  0.2020E+02
   8.360  0.2819E+01  0.2023E+02
   8.370  0.2803E+01  0.2025E+02
   8.380  0.2781E+01  0.2028E+02
   8.390  0.2753E+01  0.2031E+02
   8.400  0.2719E+01  0.2034E+02
   8.410  0.2678E+01  0.2036E+02
   8.420  0.2632E+01  0.2039E+02
   8.430  0.2582E+01  0.2042E+02
   8.440  0.2528E+01  0.2044E+02
   8.450  0.2473E+01  0.2047E+02
   8.460  0.2417E+01  0.2049E+02
   8.470  0.2363E+01  0.2051E+02
   8.480  0.2310E+01  0.2054E+02
   8.490  0.2262E+01  0.2056E+02
   8.500  0.2220E+01  0.2058E+02
   8.510  0.2184E+01  0.2060E+02
   8.520  0.2155E+01  0.2063E+02
   8.530  0.2134E+01  0.2065E+02
   8.540  0.2121E+01  0.2067E+02
   8.550  0.2116E+01  0.2069E+02
   8.560  0.2120E+01  0.2071E+02
   8.570  0.2132E+01  0.2073E+02
   8.580  0.2151E+01  0.2075E+02
   8.590  0.2178E+01  0.2077E+02
   8.600  0.2210E+01  0.2080E+02
   8.610  0.2247E+01  0.2082E+02
   8.620  0.2288E+01  0.2084E+02
   8.630  0.2332E+01  0.2087E+02
   8.640  0.2378E+01  0.2089E+02
   8.650  0.2425E+01  0.2091E+02
   8.660  0.2472E+01  0.2094E+02
   8.670  0.2517E+01  0.2096E+02
   8.680  0.2560E+01  0.2099E+02
   8.690  0.2600E+01  0.2102E+02
   8.700  0.2636E+01  0.2104E+02
   8.710  0.2668E+01  0.2107E+02
   8.720  0.2694E+01  0.2110E+02
   8.730  0.2715E+01  0.2112E+02
   8.740  0.2731E+01  0.2115E+02
   8.750  0.2741E+01  0.2118E+02
   8.760  0.2747E+01  0.2120E+02
   8.770  0.2747E+01  0.2123E+02
   8.780  0.2744E+01  0.2126E+02
   8.790  0.2737E+01  0.2129E+02
   8.800  0.2728E+01  0.2131E+02
   8.810  0.2717E+01  0.2134E+02
   8.820  0.2706E+01  0.2137E+02
   8.830  0.2696E+01  0.2140E+02
   8.840  0.2687E+01  0.2142E+02
   8.850  0.2680E+01  0.2145E+02
   8.860  0.2677E+01  0.2148E+02
   8.870  0.2676E+01  0.2150E+02
   8.880  0.2680E+01  0.2153E+02
   8.890  0.2688E+01  0.2156E+02
   8.900  0.2699E+01  0.2158E+02
   8.910  0.2714E+01  0.2161E+02
   8.920  0.2731E+01  0.2164E+02
   8.930  0.2750E+01  0.2167E+02
   8.940  0.2770E+01  0.2169E+02
   8.950  0.2790E+01  0.2172E+02
   8.960  0.2810E+01  0.2175E+02
   8.970  0.2827E+01  0.2178E+02
   8.980  0.2843E+01  0.2181E+02
   8.990  0.2855E+01  0.2183E+02
   9.000  0.2864E+01  0.2186E+02
   9.010  0.2869E+01  0.2189E+02
   9.020  0.2871E+01  0.2192E+02
   9.030  0.2871E+01  0.2195E+02
   9.040  0.2868E+01  0.2198E+02
   9.050  0.2864E+01  0.2201E+02
   9.060  0.2860E+01  0.2203E+02
   9.070  0.2856E+01  0.2206E+02
   9.080  0.2853E+01  0.2209E+02
   9.090  0.2852E+01  0.2212E+02
   9.100  0.2855E+01  0.2215E+02
   9.110  0.2860E+01  0.2218E+02
   9.120  0.2868E+01  0.2221E+02
   9.130  0.2880E+01  0.2223E+02
   9.140  0.2894E+01  0.2226E+02
   9.150  0.2909E+01  0.2229E+02
   9.160  0.2926E+01  0.2232E+02
   9.170  0.2942E+01  0.2235E+02
   9.180  0.2957E+01  0.2238E+02
   9.190  0.2969E+01  0.2241E+02
   9.200  0.2978E+01  0.2244E+02
   9.210  0.2981E+01  0.2247E+02
   9.220  0.2979E+01  0.2250E+02
   9.230  0.2971E+01  0.2253E+02
   9.240  0.2957E+01  0.2256E+02
   9.250  0.2937E+01  0.2259E+02
   9.260  0.2910E+01  0.2262E+02
   9.270  0.2879E+01  0.2265E+02
   9.280  0.2843E+01  0.2268E+02
   9.290  0.2804E+01  0.2270E+02
   9.300  0.2764E+01  0.2273E+02
   9.310  0.2722E+01  0.2276E+02
   9.320  0.2681E+01  0.2278E+02
   9.330  0.2641E+01  0.2281E+02
   9.340  0.2604E+01  0.2284E+02
   9.350  0.2570E+01  0.2286E+02
   9.360  0.2540E+01  0.2289E+02
   9.370  0.2514E+01  0.2291E+02
   9.380  0.2492E+01  0.2294E+02
   9.390  0.2474E+01  0.2296E+02
   9.400  0.2461E+01  0.2299E+02
   9.410  0.2451E+01  0.2301E+02
   9.420  0.2444E+01  0.2304E+02
   9.430  0.2439E+01  0.2306E+02
   9.440  0.2436E+01  0.2309E+02
   9.450  0.2434E+01  0.2311E+02
   9.460  0.2433E+01  0.2313E+02
   9.470  0.2432E+01  0.2316E+02
   9.480  0.2431E+01  0.2318E+02
   9.490  0.2430E+01  0.2321E+02
   9.500  0.2428E+01  0.2323E+02
   9.510  0.2427E+01  0.2326E+02
   9.520  0.2425E+01  0.2328E+02
   9.530  0.2423E+01  0.2330E+02
   9.540  0.2421E+01  0.2333E+02
   9.550  0.2420E+01  0.2335E+02
   9.560  0.2421E+01  0.2338E+02
   9.570  0.2423E+01  0.2340E+02
   9.580  0.2427E+01  0.2343E+02
   9.590  0.2433E+01  0.2345E+02
   9.600  0.2441E+01  0.2347E+02
   9.610  0.2452E+01  0.2350E+02
   9.620  0.2466E+01  0.2352E+02
   9.630  0.2482E+01  0.2355E+02
   9.640  0.2500E+01  0.2357E+02
   9.650  0.2521E+01  0.2360E+02
   9.660  0.2545E+01  0.2362E+02
   9.670  0.2570E+01  0.2365E+02
   9.680  0.2598E+01  0.2368E+02
   9.690  0.2627E+01  0.2370E+02
   9.700  0.2657E+01  0.2373E+02
   9.710  0.2688E+01  0.2376E+02
   9.720  0.2720E+01  0.2378E+02
   9.730  0.2752E+01  0.2381E+02
   9.740  0.2783E+01  0.2384E+02
   9.750  0.2815E+01  0.2387E+02
   9.760  0.2845E+01  0.2389E+02
   9.770  0.2874E+01  0.2392E+02
   9.780  0.2901E+01  0.2395E+02
   9.790  0.2927E+01  0.2398E+02
   9.800  0.2950E+01  0.2401E+02
   9.810  0.2970E+01  0.2404E+02
   9.820  0.2988E+01  0.2407E+02
   9.830  0.3003E+01  0.2410E+02
   9.840  0.3014E+01  0.2413E+02
   9.850  0.3023E+01  0.2416E+02
   9.860  0.3029E+01  0.2419E+02
   9.870  0.3032E+01  0.2422E+02
   9.880  0.3032E+01  0.2425E+02
   9.890  0.3030E+01  0.2428E+02
   9.900  0.3026E+01  0.2431E+02
   9.910  0.3021E+01  0.2434E+02
   9.920  0.3014E+01  0.2437E+02
   9.930  0.3007E+01  0.2440E+02
   9.940  0.3000E+01  0.2443E+02
   9.950  0.2994E+01  0.2446E+02
   9.960  0.2988E+01  0.2449E+02
   9.970  0.2983E+01  0.2452E+02
   9.980  0.2981E+01  0.2455E+02
   9.990  0.2980E+01  0.2458E+02
  10.000  0.2981E+01  0.2461E+02
  10.010  0.2985E+01  0.2464E+02
  10.020  0.2990E+01  0.2467E+02
  10.030  0.2998E+01  0.2470E+02
  10.040  0.3007E+01  0.2473E+02
  10.050  0.3017E+01  0.2476E+02
  10.060  0.3027E+01  0.2479E+02
  10.070  0.3037E+01  0.2482E+02
  10.080  0.3047E+01  0.2485E+02
  10.090  0.3055E+01  0.2488E+02
  10.100  0.3061E+01  0.2491E+02
  10.110  0.3064E+01  0.2494E+02
  10.120  0.3064E+01  0.2498E+02
  10.130  0.3060E+01  0.2501E+02
  10.140  0.3053E+01  0.2504E+02
  10.150  0.3041E+01  0.2507E+02
  10.160  0.3025E+01  0.2510E+02
  10.170  0.3005E+01  0.2513E+02
  10.180  0.2982E+01  0.2516E+02
  10.190  0.2956E+01  0.2519E+02
  10.200  0.2927E+01  0.2522E+02
  10.210  0.2897E+01  0.2524E+02
  10.220  0.2865E+01  0.2527E+02
  10.230  0.2834E+01  0.2530E+02
  10.240  0.2803E+01  0.2533E+02
  10.250  0.2774E+01  0.2536E+02
  10.260  0.2748E+01  0.2538E+02
  10.270  0.2726E+01  0.2541E+02
  10.280  0.2708E+01  0.2544E+02
  10.290  0.2696E+01  0.2547E+02
  10.300  0.2689E+01  0.2549E+02
  10.310  0.2687E+01  0.2552E+02
  10.320  0.2692E+01  0.2555E+02
  10.330  0.2703E+01  0.2557E+02
  10.340  0.2719E+01  0.2560E+02
  10.350  0.2740E+01  0.2563E+02
  10.360  0.2766E+01  0.2566E+02
  10.370  0.2794E+01  0.2568E+02
  10.380  0.2825E+01  0.2571E+02
  10.390  0.2856E+01  0.2574E+02
  10.400  0.2888E+01  0.2577E+02
  10.410  0.2918E+01  0.2580E+02
  10.420  0.2945E+01  0.2583E+02
  10.430  0.2969E+01  0.2586E+02
  10.440  0.2989E+01  0.2589E+02
  10.450  0.3004E+01  0.2592E+02
  10.460  0.3013E+01  0.2595E+02
  10.470  0.3018E+01  0.2598E+02
  10.480  0.3018E+01  0.2601E+02
  10.490  0.3013E+01  0.2604E+02
  10.500  0.3004E+01  0.2607E+02
  10.510  0.2992E+01  0.2610E+02
  10.520  0.2978E+01  0.2613E+02
  10.530  0.2964E+01  0.2616E+02
  10.540  0.2950E+01  0.2619E+02
  10.550  0.2937E+01  0.2622E+02
  10.560  0.2926E+01  0.2625E+02
  10.570  0.2919E+01  0.2628E+02
  10.580  0.2916E+01  0.2630E+02
  10.590  0.2918E+01  0.2633E+02
  10.600  0.2925E+01  0.2636E+02
  10.610  0.2937E+01  0.2639E+02
  10.620  0.2953E+01  0.2642E+02
  10.630  0.2974E+01  0.2645E+02
  10.640  0.2999E+01  0.2648E+02
  10.650  0.3026E+01  0.2651E+02
  10.660  0.3056E+01  0.2654E+02
  10.670  0.3086E+01  0.2657E+02
  10.680  0.3116E+01  0.2660E+02
  10.690  0.3144E+01  0.2664E+02
  10.700  0.3170E+01  0.2667E+02
  10.710  0.3193E+01  0.2670E+02
  10.720  0.3211E+01  0.2673E+02
  10.730  0.3223E+01  0.2676E+02
  10.740  0.3230E+01  0.2680E+02
  10.750  0.3230E+01  0.2683E+02
  10.760  0.3224E+01  0.2686E+02
  10.770  0.3211E+01  0.2689E+02
  10.780  0.3192E+01  0.2692E+02
  10.790  0.3165E+01  0.2696E+02
  10.800  0.3133E+01  0.2699E+02
  10.810  0.3094E+01  0.2702E+02
  10.820  0.3050E+01  0.2705E+02
  10.830  0.3001E+01  0.2708E+02
  10.840  0.2947E+01  0.2711E+02
  10.850  0.2890E+01  0.2714E+02
  10.860  0.2829E+01  0.2717E+02
  10.870  0.2767E+01  0.2719E+02
  10.880  0.2703E+01  0.2722E+02
  10.890  0.2638E+01  0.2725E+02
  10.900  0.2575E+01  0.2727E+02
  10.910  0.2514E+01  0.2730E+02
  10.920  0.2457E+01  0.2732E+02
  10.930  0.2406E+01  0.2735E+02
  10.940  0.2361E+01  0.2737E+02
  10.950  0.2326E+01  0.2739E+02
  10.960  0.2300E+01  0.2742E+02
  10.970  0.2286E+01  0.2744E+02
  10.980  0.2286E+01  0.2746E+02
  10.990  0.2299E+01  0.2749E+02
  11.000  0.2326E+01  0.2751E+02
  11.010  0.2369E+01  0.2753E+02
  11.020  0.2425E+01  0.2756E+02
  11.030  0.2495E+01  0.2758E+02
  11.040  0.2577E+01  0.2761E+02
  11.050  0.2668E+01  0.2763E+02
  11.060  0.2768E+01  0.2766E+02
  11.070  0.2872E+01  0.2769E+02
  11.080  0.2978E+01  0.2772E+02
  11.090  0.3084E+01  0.2775E+02
  11.100  0.3185E+01  0.2778E+02
  11.110  0.3278E+01  0.2782E+02
  11.120  0.3362E+01  0.2785E+02
  11.130  0.3433E+01  0.2788E+02
  11.140  0.3489E+01  0.2792E+02
  11.150  0.3529E+01  0.2795E+02
  11.160  0.3552E+01  0.2799E+02
  11.170  0.3557E+01  0.2802E+02
  11.180  0.3546E+01  0.2806E+02
  11.190  0.3517E+01  0.2810E+02
  11.200  0.3475E+01  0.2813E+02
  11.210  0.3418E+01  0.2816E+02
  11.220  0.3351E+01  0.2820E+02
  11.230  0.3275E+01  0.2823E+02
  11.240  0.3193E+01  0.2826E+02
  11.250  0.3108E+01  0.2829E+02
  11.260  0.3022E+01  0.2832E+02
  11.270  0.2937E+01  0.2835E+02
  11.280  0.2855E+01  0.2838E+02
  11.290  0.2779E+01  0.2841E+02
  11.300  0.2710E+01  0.2844E+02
  11.310  0.2649E+01  0.2846E+02
  11.320  0.2597E+01  0.2849E+02
  11.330  0.2554E+01  0.2851E+02
  11.340  0.2522E+01  0.2854E+02
  11.350  0.2499E+01  0.2856E+02
  11.360  0.2485E+01  0.2859E+02
  11.370  0.2481E+01  0.2861E+02
  11.380  0.2485E+01  0.2864E+02
  11.390  0.2497E+01  0.2866E+02
  11.400  0.2515E+01  0.2869E+02
  11.410  0.2540E+01  0.2871E+02
  11.420  0.2570E+01  0.2874E+02
  11.430  0.2605E+01  0.2877E+02
  11.440  0.2644E+01  0.2879E+02
  11.450  0.2686E+01  0.2882E+02
  11.460  0.2730E+01  0.2885E+02
  11.470  0.2777E+01  0.2887E+02
  11.480  0.2825E+01  0.2890E+02
  11.490  0.2874E+01  0.2893E+02
  11.500  0.2925E+01  0.2896E+02
  11.510  0.2976E+01  0.2899E+02
  11.520  0.3027E+01  0.2902E+02
  11.530  0.3079E+01  0.2905E+02
  11.540  0.3131E+01  0.2908E+02
  11.550  0.3183E+01  0.2911E+02
  11.560  0.3234E+01  0.2915E+02
  11.570  0.3285E+01  0.2918E+02
  11.580  0.3334E+01  0.2921E+02
  11.590  0.3382E+01  0.2925E+02
  11.600  0.3429E+01  0.2928E+02
  11.610  0.3473E+01  0.2932E+02
  11.620  0.3514E+01  0.2935E+02
  11.630  0.3552E+01  0.2939E+02
  11.640  0.3586E+01  0.2942E+02
  11.650  0.3615E+01  0.2946E+02
  11.660  0.3639E+01  0.2950E+02
  11.670  0.3656E+01  0.2953E+02
  11.680  0.3668E+01  0.2957E+02
  11.690  0.3672E+01  0.2961E+02
  11.700  0.3669E+01  0.2964E+02
  11.710  0.3658E+01  0.2968E+02
  11.720  0.3639E+01  0.2971E+02
  11.730  0.3613E+01  0.2975E+02
  11.740  0.3580E+01  0.2979E+02
  11.750  0.3540E+01  0.2982E+02
  11.760  0.3493E+01  0.2986E+02
  11.770  0.3440E+01  0.2989E+02
  11.780  0.3383E+01  0.2993E+02
  11.790  0.3322E+01  0.2996E+02
  11.800  0.3259E+01  0.2999E+02
  11.810  0.3193E+01  0.3002E+02
  11.820  0.3127E+01  0.3005E+02
  11.830  0.3062E+01  0.3009E+02
  11.840  0.2999E+01  0.3012E+02
  11.850  0.2938E+01  0.3014E+02
  11.860  0.2881E+01  0.3017E+02
  11.870  0.2827E+01  0.3020E+02
  11.880  0.2779E+01  0.3023E+02
  11.890  0.2736E+01  0.3026E+02
  11.900  0.2698E+01  0.3028E+02
  11.910  0.2666E+01  0.3031E+02
  11.920  0.2640E+01  0.3034E+02
  11.930  0.2619E+01  0.3036E+02
  11.940  0.2603E+01  0.3039E+02
  11.950  0.2591E+01  0.3041E+02
  11.960  0.2584E+01  0.3044E+02
  11.970  0.2580E+01  0.3047E+02
  11.980  0.2580E+01  0.3049E+02
  11.990  0.2582E+01  0.3052E+02
  12.000  0.2586E+01  0.3054E+02
  12.010  0.2592E+01  0.3057E+02
  12.020  0.2599E+01  0.3060E+02
  12.030  0.2608E+01  0.3062E+02
  12.040  0.2617E+01  0.3065E+02
  12.050  0.2626E+01  0.3067E+02
  12.060  0.2636E+01  0.3070E+02
  12.070  0.2647E+01  0.3073E+02
  12.080  0.2658E+01  0.3075E+02
  12.090  0.2670E+01  0.3078E+02
  12.100  0.2683E+01  0.3081E+02
  12.110  0.2695E+01  0.3083E+02
  12.120  0.2709E+01  0.3086E+02
  12.130  0.2723E+01  0.3089E+02
  12.140  0.2738E+01  0.3092E+02
  12.150  0.2752E+01  0.3094E+02
  12.160  0.2767E+01  0.3097E+02
  12.170  0.2782E+01  0.3100E+02
  12.180  0.2796E+01  0.3103E+02
  12.190  0.2810E+01  0.3106E+02
  12.200  0.2822E+01  0.3108E+02
  12.210  0.2833E+01  0.3111E+02
  12.220  0.2842E+01  0.3114E+02
  12.230  0.2849E+01  0.3117E+02
  12.240  0.2853E+01  0.3120E+02
  12.250  0.2854E+01  0.3123E+02
  12.260  0.2852E+01  0.3125E+02
  12.270  0.2847E+01  0.3128E+02
  12.280  0.2839E+01  0.3131E+02
  12.290  0.2826E+01  0.3134E+02
  12.300  0.2811E+01  0.3137E+02
  12.310  0.2792E+01  0.3140E+02
  12.320  0.2769E+01  0.3142E+02
  12.330  0.2743E+01  0.3145E+02
  12.340  0.2714E+01  0.3148E+02
  12.350  0.2683E+01  0.3150E+02
  12.360  0.2651E+01  0.3153E+02
  12.370  0.2617E+01  0.3156E+02
  12.380  0.2582E+01  0.3158E+02
  12.390  0.2549E+01  0.3161E+02
  12.400  0.2517E+01  0.3163E+02
  12.410  0.2487E+01  0.3166E+02
  12.420  0.2461E+01  0.3168E+02
  12.430  0.2440E+01  0.3171E+02
  12.440  0.2423E+01  0.3173E+02
  12.450  0.2413E+01  0.3176E+02
  12.460  0.2409E+01  0.3178E+02
  12.470  0.2412E+01  0.3180E+02
  12.480  0.2421E+01  0.3183E+02
  12.490  0.2437E+01  0.3185E+02
  12.500  0.2459E+01  0.3188E+02
  12.510  0.2485E+01  0.3190E+02
  12.520  0.2516E+01  0.3193E+02
  12.530  0.2549E+01  0.3195E+02
  12.540  0.2583E+01  0.3198E+02
  12.550  0.2616E+01  0.3200E+02
  12.560  0.2647E+01  0.3203E+02
  12.570  0.2674E+01  0.3206E+02
  12.580  0.2695E+01  0.3208E+02
  12.590  0.2710E+01  0.3211E+02
  12.600  0.2716E+01  0.3214E+02
  12.610  0.2714E+01  0.3217E+02
  12.620  0.2702E+01  0.3219E+02
  12.630  0.2682E+01  0.3222E+02
  12.640  0.2653E+01  0.3225E+02
  12.650  0.2616E+01  0.3227E+02
  12.660  0.2572E+01  0.3230E+02
  12.670  0.2523E+01  0.3232E+02
  12.680  0.2471E+01  0.3235E+02
  12.690  0.2417E+01  0.3237E+02
  12.700  0.2364E+01  0.3240E+02
  12.710  0.2313E+01  0.3242E+02
  12.720  0.2268E+01  0.3244E+02
  12.730  0.2228E+01  0.3246E+02
  12.740  0.2198E+01  0.3249E+02
  12.750  0.2177E+01  0.3251E+02
  12.760  0.2167E+01  0.3253E+02
  12.770  0.2169E+01  0.3255E+02
  12.780  0.2184E+01  0.3257E+02
  12.790  0.2210E+01  0.3260E+02
  12.800  0.2249E+01  0.3262E+02
  12.810  0.2299E+01  0.3264E+02
  12.820  0.2359E+01  0.3266E+02
  12.830  0.2428E+01  0.3269E+02
  12.840  0.2504E+01  0.3271E+02
  12.850  0.2586E+01  0.3274E+02
  12.860  0.2672E+01  0.3277E+02
  12.870  0.2759E+01  0.3279E+02
  12.880  0.2846E+01  0.3282E+02
  12.890  0.2931E+01  0.3285E+02
  12.900  0.3013E+01  0.3288E+02
  12.910  0.3090E+01  0.3291E+02
  12.920  0.3162E+01  0.3294E+02
  12.930  0.3227E+01  0.3298E+02
  12.940  0.3285E+01  0.3301E+02
  12.950  0.3335E+01  0.3304E+02
  12.960  0.3379E+01  0.3308E+02
  12.970  0.3416E+01  0.3311E+02
  12.980  0.3446E+01  0.3315E+02
  12.990  0.3471E+01  0.3318E+02
  13.000  0.3491E+01  0.3321E+02
  13.010  0.3507E+01  0.3325E+02
  13.020  0.3519E+01  0.3329E+02
  13.030  0.3528E+01  0.3332E+02
  13.040  0.3534E+01  0.3336E+02
  13.050  0.3539E+01  0.3339E+02
  13.060  0.3543E+01  0.3343E+02
  13.070  0.3546E+01  0.3346E+02
  13.080  0.3548E+01  0.3350E+02
  13.090  0.3550E+01  0.3353E+02
  13.100  0.3551E+01  0.3357E+02
  13.110  0.3552E+01  0.3360E+02
  13.120  0.3554E+01  0.3364E+02
  13.130  0.3556E+01  0.3368E+02
  13.140  0.3558E+01  0.3371E+02
  13.150  0.3561E+01  0.3375E+02
  13.160  0.3564E+01  0.3378E+02
  13.170  0.3568E+01  0.3382E+02
  13.180  0.3573E+01  0.3385E+02
  13.190  0.3578E+01  0.3389E+02
  13.200  0.3584E+01  0.3392E+02
  13.210  0.3590E+01  0.3396E+02
  13.220  0.3595E+01  0.3400E+02
  13.230  0.3600E+01  0.3403E+02
  13.240  0.3603E+01  0.3407E+02
  13.250  0.3604E+01  0.3410E+02
  13.260  0.3602E+01  0.3414E+02
  13.270  0.3596E+01  0.3418E+02
  13.280  0.3586E+01  0.3421E+02
  13.290  0.3571E+01  0.3425E+02
  13.300  0.3550E+01  0.3428E+02
  13.310  0.3523E+01  0.3432E+02
  13.320  0.3490E+01  0.3435E+02
  13.330  0.3450E+01  0.3439E+02
  13.340  0.3403E+01  0.3442E+02
  13.350  0.3350E+01  0.3446E+02
  13.360  0.3291E+01  0.3449E+02
  13.370  0.3226E+01  0.3452E+02
  13.380  0.3157E+01  0.3455E+02
  13.390  0.3085E+01  0.3458E+02
  13.400  0.3011E+01  0.3461E+02
  13.410  0.2935E+01  0.3464E+02
  13.420  0.2860E+01  0.3467E+02
  13.430  0.2787E+01  0.3470E+02
  13.440  0.2717E+01  0.3473E+02
  13.450  0.2652E+01  0.3475E+02
  13.460  0.2593E+01  0.3478E+02
  13.470  0.2540E+01  0.3480E+02
  13.480  0.2494E+01  0.3483E+02
  13.490  0.2457E+01  0.3485E+02
  13.500  0.2428E+01  0.3488E+02
  13.510  0.2407E+01  0.3490E+02
  13.520  0.2393E+01  0.3493E+02
  13.530  0.2386E+01  0.3495E+02
  13.540  0.2386E+01  0.3497E+02
  13.550  0.2389E+01  0.3500E+02
  13.560  0.2396E+01  0.3502E+02
  13.570  0.2405E+01  0.3505E+02
  13.580  0.2413E+01  0.3507E+02
  13.590  0.2420E+01  0.3509E+02
  13.600  0.2424E+01  0.3512E+02
  13.610  0.2425E+01  0.3514E+02
  13.620  0.2421E+01  0.3517E+02
  13.630  0.2412E+01  0.3519E+02
  13.640  0.2398E+01  0.3522E+02
  13.650  0.2379E+01  0.3524E+02
  13.660  0.2355E+01  0.3526E+02
  13.670  0.2327E+01  0.3529E+02
  13.680  0.2297E+01  0.3531E+02
  13.690  0.2263E+01  0.3533E+02
  13.700  0.2229E+01  0.3535E+02
  13.710  0.2194E+01  0.3538E+02
  13.720  0.2160E+01  0.3540E+02
  13.730  0.2128E+01  0.3542E+02
  13.740  0.2097E+01  0.3544E+02
  13.750  0.2069E+01  0.3546E+02
  13.760  0.2043E+01  0.3548E+02
  13.770  0.2020E+01  0.3550E+02
  13.780  0.2000E+01  0.3552E+02
  13.790  0.1983E+01  0.3554E+02
  13.800  0.1968E+01  0.3556E+02
  13.810  0.1955E+01  0.3558E+02
  13.820  0.1944E+01  0.3560E+02
  13.830  0.1935E+01  0.3562E+02
  13.840  0.1926E+01  0.3564E+02
  13.850  0.1918E+01  0.3566E+02
  13.860  0.1911E+01  0.3568E+02
  13.870  0.1904E+01  0.3570E+02
  13.880  0.1897E+01  0.3571E+02
  13.890  0.1890E+01  0.3573E+02
  13.900  0.1883E+01  0.3575E+02
  13.910  0.1875E+01  0.3577E+02
  13.920  0.1868E+01  0.3579E+02
  13.930  0.1860E+01  0.3581E+02
  13.940  0.1853E+01  0.3583E+02
  13.950  0.1845E+01  0.3584E+02
  13.960  0.1838E+01  0.3586E+02
  13.970  0.1830E+01  0.3588E+02
  13.980  0.1824E+01  0.3590E+02
  13.990  0.1817E+01  0.3592E+02
  14.000  0.1811E+01  0.3594E+02
  14.010  0.1806E+01  0.3595E+02
  14.020  0.1801E+01  0.3597E+02
  14.030  0.1797E+01  0.3599E+02
  14.040  0.1794E+01  0.3601E+02
  14.050  0.1791E+01  0.3603E+02
  14.060  0.1789E+01  0.3604E+02
  14.070  0.1787E+01  0.3606E+02
  14.080  0.1786E+01  0.3608E+02
  14.090  0.1785E+01  0.3610E+02
  14.100  0.1785E+01  0.3612E+02
  14.110  0.1784E+01  0.3613E+02
  14.120  0.1784E+01  0.3615E+02
  14.130  0.1784E+01  0.3617E+02
  14.140  0.1784E+01  0.3619E+02
  14.150  0.1784E+01  0.3620E+02
  14.160  0.1783E+01  0.3622E+02
  14.170  0.1781E+01  0.3624E+02
  14.180  0.1777E+01  0.3626E+02
  14.190  0.1772E+01  0.3628E+02
  14.200  0.1765E+01  0.3629E+02
  14.210  0.1755E+01  0.3631E+02
  14.220  0.1741E+01  0.3633E+02
  14.230  0.1725E+01  0.3635E+02
  14.240  0.1704E+01  0.3636E+02
  14.250  0.1680E+01  0.3638E+02
  14.260  0.1651E+01  0.3640E+02
  14.270  0.1619E+01  0.3641E+02
  14.280  0.1582E+01  0.3643E+02
  14.290  0.1542E+01  0.3644E+02
  14.300  0.1499E+01  0.3646E+02
  14.310  0.1454E+01  0.3647E+02
  14.320  0.1407E+01  0.3649E+02
  14.330  0.1359E+01  0.3650E+02
  14.340  0.1311E+01  0.3651E+02
  14.350  0.1264E+01  0.3653E+02
  14.360  0.1220E+01  0.3654E+02
  14.370  0.1177E+01  0.3655E+02
  14.380  0.1138E+01  0.3656E+02
  14.390  0.1102E+01  0.3657E+02
  14.400  0.1071E+01  0.3658E+02
  14.410  0.1043E+01  0.3659E+02
  14.420  0.1020E+01  0.3660E+02
  14.430  0.1001E+01  0.3661E+02
  14.440  0.9849E+00  0.3662E+02
  14.450  0.9725E+00  0.3663E+02
  14.460  0.9629E+00  0.3664E+02
  14.470  0.9554E+00  0.3665E+02
  14.480  0.9495E+00  0.3666E+02
  14.490  0.9448E+00  0.3667E+02
  14.500  0.9407E+00  0.3668E+02
  14.510  0.9370E+00  0.3669E+02
  14.520  0.9333E+00  0.3670E+02
  14.530  0.9295E+00  0.3671E+02
  14.540  0.9257E+00  0.3672E+02
  14.550  0.9219E+00  0.3673E+02
  14.560  0.9182E+00  0.3674E+02
  14.570  0.9151E+00  0.3675E+02
  14.580  0.9127E+00  0.3676E+02
  14.590  0.9113E+00  0.3676E+02
  14.600  0.9112E+00  0.3677E+02
  14.610  0.9127E+00  0.3678E+02
  14.620  0.9159E+00  0.3679E+02
  14.630  0.9207E+00  0.3680E+02
  14.640  0.9272E+00  0.3681E+02
  14.650  0.9352E+00  0.3682E+02
  14.660  0.9444E+00  0.3683E+02
  14.670  0.9544E+00  0.3684E+02
  14.680  0.9648E+00  0.3685E+02
  14.690  0.9750E+00  0.3686E+02
  14.700  0.9847E+00  0.3687E+02
  14.710  0.9933E+00  0.3688E+02
  14.720  0.1000E+01  0.3689E+02
  14.730  0.1005E+01  0.3690E+02
  14.740  0.1008E+01  0.3691E+02
  14.750  0.1008E+01  0.3692E+02
  14.760  0.1006E+01  0.3693E+02
  14.770  0.1000E+01  0.3694E+02
  14.780  0.9923E+00  0.3695E+02
  14.790  0.9816E+00  0.3696E+02
  14.800  0.9684E+00  0.3697E+02
  14.810  0.9530E+00  0.3698E+02
  14.820  0.9359E+00  0.3699E+02
  14.830  0.9173E+00  0.3700E+02
  14.840  0.8978E+00  0.3700E+02
  14.850  0.8780E+00  0.3701E+02
  14.860  0.8582E+00  0.3702E+02
  14.870  0.8393E+00  0.3703E+02
  14.880  0.8216E+00  0.3704E+02
  14.890  0.8060E+00  0.3705E+02
  14.900  0.7930E+00  0.3705E+02
  14.910  0.7831E+00  0.3706E+02
  14.920  0.7770E+00  0.3707E+02
  14.930  0.7752E+00  0.3708E+02
  14.940  0.7780E+00  0.3709E+02
  14.950  0.7858E+00  0.3709E+02
  14.960  0.7988E+00  0.3710E+02
  14.970  0.8170E+00  0.3711E+02
  14.980  0.8404E+00  0.3712E+02
  14.990  0.8687E+00  0.3713E+02
  15.000  0.9017E+00  0.3714E+02
  15.010  0.9388E+00  0.3714E+02
  15.020  0.9794E+00  0.3715E+02
  15.030  0.1023E+01  0.3716E+02
  15.040  0.1068E+01  0.3718E+02
  15.050  0.1114E+01  0.3719E+02
  15.060  0.1161E+01  0.3720E+02
  15.070  0.1206E+01  0.3721E+02
  15.080  0.1249E+01  0.3722E+02
  15.090  0.1290E+01  0.3724E+02
  15.100  0.1327E+01  0.3725E+02
  15.110  0.1359E+01  0.3726E+02
  15.120  0.1386E+01  0.3728E+02
  15.130  0.1407E+01  0.3729E+02
  15.140  0.1422E+01  0.3730E+02
  15.150  0.1429E+01  0.3732E+02
  15.160  0.1430E+01  0.3733E+02
  15.170  0.1423E+01  0.3735E+02
  15.180  0.1409E+01  0.3736E+02
  15.190  0.1388E+01  0.3738E+02
  15.200  0.1360E+01  0.3739E+02
  15.210  0.1327E+01  0.3740E+02
  15.220  0.1287E+01  0.3742E+02
  15.230  0.1242E+01  0.3743E+02
  15.240  0.1193E+01  0.3744E+02
  15.250  0.1140E+01  0.3745E+02
  15.260  0.1083E+01  0.3746E+02
  15.270  0.1025E+01  0.3747E+02
  15.280  0.9650E+00  0.3748E+02
  15.290  0.9041E+00  0.3749E+02
  15.300  0.8431E+00  0.3750E+02
  15.310  0.7826E+00  0.3751E+02
  15.320  0.7229E+00  0.3751E+02
  15.330  0.6648E+00  0.3752E+02
  15.340  0.6085E+00  0.3753E+02
  15.350  0.5543E+00  0.3753E+02
  15.360  0.5027E+00  0.3754E+02
  15.370  0.4537E+00  0.3754E+02
  15.380  0.4075E+00  0.3755E+02
  15.390  0.3644E+00  0.3755E+02
  15.400  0.3243E+00  0.3755E+02
  15.410  0.2873E+00  0.3756E+02
  15.420  0.2534E+00  0.3756E+02
  15.430  0.2228E+00  0.3756E+02
  15.440  0.1953E+00  0.3756E+02
  15.450  0.1710E+00  0.3756E+02
  15.460  0.1499E+00  0.3757E+02
  15.470  0.1319E+00  0.3757E+02
  15.480  0.1170E+00  0.3757E+02
  15.490  0.1052E+00  0.3757E+02
  15.500  0.9647E-01  0.3757E+02
  15.510  0.9080E-01  0.3757E+02
  15.520  0.8814E-01  0.3757E+02
  15.530  0.8844E-01  0.3757E+02
  15.540  0.9165E-01  0.3757E+02
  15.550  0.9771E-01  0.3757E+02
  15.560  0.1065E+00  0.3758E+02
  15.570  0.1179E+00  0.3758E+02
  15.580  0.1318E+00  0.3758E+02
  15.590  0.1480E+00  0.3758E+02
  15.600  0.1662E+00  0.3758E+02
  15.610  0.1863E+00  0.3758E+02
  15.620  0.2077E+00  0.3759E+02
  15.630  0.2303E+00  0.3759E+02
  15.640  0.2535E+00  0.3759E+02
  15.650  0.2770E+00  0.3759E+02
  15.660  0.3003E+00  0.3760E+02
  15.670  0.3230E+00  0.3760E+02
  15.680  0.3446E+00  0.3760E+02
  15.690  0.3647E+00  0.3761E+02
  15.700  0.3829E+00  0.3761E+02
  15.710  0.3990E+00  0.3761E+02
  15.720  0.4126E+00  0.3762E+02
  15.730  0.4235E+00  0.3762E+02
  15.740  0.4317E+00  0.3763E+02
  15.750  0.4372E+00  0.3763E+02
  15.760  0.4399E+00  0.3764E+02
  15.770  0.4400E+00  0.3764E+02
  15.780  0.4377E+00  0.3764E+02
  15.790  0.4333E+00  0.3765E+02
  15.800  0.4270E+00  0.3765E+02
  15.810  0.4193E+00  0.3766E+02
  15.820  0.4105E+00  0.3766E+02
  15.830  0.4009E+00  0.3767E+02
  15.840  0.3908E+00  0.3767E+02
  15.850  0.3806E+00  0.3767E+02
  15.860  0.3706E+00  0.3768E+02
  15.870  0.3610E+00  0.3768E+02
  15.880  0.3520E+00  0.3768E+02
  15.890  0.3436E+00  0.3769E+02
  15.900  0.3360E+00  0.3769E+02
  15.910  0.3290E+00  0.3769E+02
  15.920  0.3227E+00  0.3770E+02
  15.930  0.3169E+00  0.3770E+02
  15.940  0.3114E+00  0.3770E+02
  15.950  0.3060E+00  0.3771E+02
  15.960  0.3004E+00  0.3771E+02
  15.970  0.2946E+00  0.3771E+02
  15.980  0.2881E+00  0.3772E+02
  15.990  0.2809E+00  0.3772E+02
  16.000  0.2727E+00  0.3772E+02
  16.010  0.2634E+00  0.3772E+02
  16.020  0.2531E+00  0.3773E+02
  16.030  0.2416E+00  0.3773E+02
  16.040  0.2291E+00  0.3773E+02
  16.050  0.2157E+00  0.3773E+02
  16.060  0.2014E+00  0.3774E+02
  16.070  0.1865E+00  0.3774E+02
  16.080  0.1713E+00  0.3774E+02
  16.090  0.1559E+00  0.3774E+02
  16.100  0.1406E+00  0.3774E+02
  16.110  0.1257E+00  0.3774E+02
  16.120  0.1112E+00  0.3774E+02
  16.130  0.9748E-01  0.3775E+02
  16.140  0.8462E-01  0.3775E+02
  16.150  0.7272E-01  0.3775E+02
  16.160  0.6188E-01  0.3775E+02
  16.170  0.5212E-01  0.3775E+02
  16.180  0.4346E-01  0.3775E+02
  16.190  0.3587E-01  0.3775E+02
  16.200  0.2931E-01  0.3775E+02
  16.210  0.2370E-01  0.3775E+02
  16.220  0.1896E-01  0.3775E+02
  16.230  0.1502E-01  0.3775E+02
  16.240  0.1177E-01  0.3775E+02
  16.250  0.9133E-02  0.3775E+02
  16.260  0.7011E-02  0.3775E+02
  16.270  0.5326E-02  0.3775E+02
  16.280  0.4004E-02  0.3775E+02
  16.290  0.2979E-02  0.3775E+02
  16.300  0.2193E-02  0.3775E+02
  16.310  0.1598E-02  0.3775E+02
  16.320  0.1152E-02  0.3775E+02
  16.330  0.8219E-03  0.3775E+02
  16.340  0.5802E-03  0.3775E+02
  16.350  0.4053E-03  0.3775E+02
  16.360  0.2802E-03  0.3775E+02
  16.370  0.1917E-03  0.3775E+02
  16.380  0.1297E-03  0.3775E+02
  16.390  0.8690E-04  0.3775E+02
  16.400  0.5759E-04  0.3775E+02
  16.410  0.3777E-04  0.3775E+02
  16.420  0.2451E-04  0.3775E+02
  16.430  0.1574E-04  0.3775E+02
  16.440  0.1000E-04  0.3775E+02
  16.450  0.6288E-05  0.3775E+02
  16.460  0.3912E-05  0.3775E+02
  16.470  0.2408E-05  0.3775E+02
  16.480  0.1467E-05  0.3775E+02
  16.490  0.8842E-06  0.3775E+02
  16.500  0.5273E-06  0.3775E+02
  16.510  0.3112E-06  0.3775E+02
  16.520  0.1817E-06  0.3775E+02
  16.530  0.1050E-06  0.3775E+02
  16.540  0.6002E-07  0.3775E+02
  16.550  0.3395E-07  0.3775E+02
  16.560  0.1900E-07  0.3775E+02
  16.570  0.1052E-07  0.3775E+02
  16.580  0.5766E-08  0.3775E+02
  16.590  0.3126E-08  0.3775E+02
  16.600  0.1677E-08  0.3775E+02
  16.610  0.8902E-09  0.3775E+02
  16.620  0.4675E-09  0.3775E+02
  16.630  0.2430E-09  0.3775E+02
  16.640  0.1249E-09  0.3775E+02
  16.650  0.6355E-10  0.3775E+02
  16.660  0.3199E-10  0.3775E+02
  16.670  0.1593E-10  0.3775E+02
  16.680  0.7849E-11  0.3775E+02
  16.690  0.3827E-11  0.3775E+02
  16.700  0.1846E-11  0.3775E+02
  16.710  0.8810E-12  0.3775E+02
  16.720  0.4160E-12  0.3775E+02
  16.730  0.1944E-12  0.3775E+02
  16.740  0.8984E-13  0.3775E+02
  16.750  0.4109E-13  0.3775E+02
  16.760  0.1859E-13  0.3775E+02
  16.770  0.8323E-14  0.3775E+02
  16.780  0.3687E-14  0.3775E+02
  16.790  0.1616E-14  0.3775E+02
  16.800  0.7005E-15  0.3775E+02
  16.810  0.3005E-15  0.3775E+02
  16.820  0.1275E-15  0.3775E+02
  16.830  0.5355E-16  0.3775E+02
  16.840  0.2225E-16  0.3775E+02
  16.850  0.9144E-17  0.3775E+02
  16.860  0.3718E-17  0.3775E+02
  16.870  0.1496E-17  0.3775E+02
  16.880  0.5954E-18  0.3775E+02
  16.890  0.2345E-18  0.3775E+02
  16.900  0.9135E-19  0.3775E+02
  16.910  0.3521E-19  0.3775E+02
  16.920  0.1343E-19  0.3775E+02
  16.930  0.5066E-20  0.3775E+02
  16.940  0.1891E-20  0.3775E+02
  16.950  0.6982E-21  0.3775E+02
  16.960  0.2551E-21  0.3775E+02
  16.970  0.9220E-22  0.3775E+02
  16.980  0.3297E-22  0.3775E+02
  16.990  0.1166E-22  0.3775E+02
  17.000  0.4082E-23  0.3775E+02
  17.010  0.1413E-23  0.3775E+02
  17.020  0.4842E-24  0.3775E+02
  17.030  0.1641E-24  0.3775E+02
  17.040  0.5501E-25  0.3775E+02
  17.050  0.1825E-25  0.3775E+02
  17.060  0.5988E-26  0.3775E+02
  17.070  0.1944E-26  0.3775E+02
  17.080  0.6243E-27  0.3775E+02
  17.090  0.1984E-27  0.3775E+02
  17.100  0.6235E-28  0.3775E+02
  17.110  0.1939E-28  0.3775E+02
  17.120  0.5965E-29  0.3775E+02
  17.130  0.1816E-29  0.3775E+02
  17.140  0.5467E-30  0.3775E+02
  17.150  0.1629E-30  0.3775E+02
  17.160  0.4799E-31  0.3775E+02
  17.170  0.1399E-31  0.3775E+02
  17.180  0.4035E-32  0.3775E+02
  17.190  0.1151E-32  0.3775E+02
  17.200  0.3250E-33  0.3775E+02
  17.210  0.9076E-34  0.3775E+02
  17.220  0.2507E-34  0.3775E+02
  17.230  0.6853E-35  0.3775E+02
  17.240  0.1853E-35  0.3775E+02
  17.250  0.4956E-36  0.3775E+02
  17.260  0.1311E-36  0.3775E+02
  17.270  0.3433E-37  0.3775E+02
  17.280  0.8890E-38  0.3775E+02
  17.290  0.2278E-38  0.3775E+02
  17.300  0.5773E-39  0.3775E+02
  17.310  0.1447E-39  0.3775E+02
  17.320  0.3590E-40  0.3775E+02
  17.330  0.8810E-41  0.3775E+02
  17.340  0.2139E-41  0.3775E+02
  17.350  0.5136E-42  0.3775E+02
  17.360  0.1220E-42  0.3775E+02
  17.370  0.2868E-43  0.3775E+02
  17.380  0.6669E-44  0.3775E+02
  17.390  0.1534E-44  0.3775E+02
  17.400  0.3490E-45  0.3775E+02
  17.410  0.7857E-46  0.3775E+02
  17.420  0.1750E-46  0.3775E+02
  17.430  0.3855E-47  0.3775E+02
  17.440  0.8401E-48  0.3775E+02
  17.450  0.1811E-48  0.3775E+02
  17.460  0.3863E-49  0.3775E+02
  17.470  0.8152E-50  0.3775E+02
  17.480  0.1702E-50  0.3775E+02
  17.490  0.3514E-51  0.3775E+02
  17.500  0.7178E-52  0.3775E+02
  17.510  0.1451E-52  0.3775E+02
  17.520  0.2900E-53  0.3775E+02
  17.530  0.5736E-54  0.3775E+02
  17.540  0.1122E-54  0.3775E+02
  17.550  0.2172E-55  0.3775E+02
  17.560  0.4159E-56  0.3775E+02
  17.570  0.7878E-57  0.3775E+02
  17.580  0.1476E-57  0.3775E+02
  17.590  0.2736E-58  0.3775E+02
  17.600  0.5018E-59  0.3775E+02
  17.610  0.9104E-60  0.3775E+02
  17.620  0.1634E-60  0.3775E+02
  17.630  0.2901E-61  0.3775E+02
  17.640  0.5095E-62  0.3775E+02
  17.650  0.8852E-63  0.3775E+02
  17.660  0.1522E-63  0.3775E+02
  17.670  0.2587E-64  0.3775E+02
  17.680  0.4352E-65  0.3775E+02
  17.690  0.7242E-66  0.3775E+02
  17.700  0.1192E-66  0.3775E+02
  17.710  0.1941E-67  0.3775E+02
  17.720  0.3128E-68  0.3775E+02
  17.730  0.4985E-69  0.3775E+02
  17.740  0.7859E-70  0.3775E+02
  17.750  0.1226E-70  0.3775E+02
  17.760  0.1891E-71  0.3775E+02
  17.770  0.2887E-72  0.3775E+02
  17.780  0.4359E-73  0.3775E+02
  17.790  0.6511E-74  0.3775E+02
  17.800  0.9621E-75  0.3775E+02
  17.810  0.1406E-75  0.3775E+02
  17.820  0.2034E-76  0.3775E+02
  17.830  0.2910E-77  0.3775E+02
  17.840  0.4118E-78  0.3775E+02
  17.850  0.5765E-79  0.3775E+02
  17.860  0.7985E-80  0.3775E+02
  17.870  0.1094E-80  0.3775E+02
  17.880  0.1485E-81  0.3775E+02
  17.890  0.2011E-82  0.3775E+02
  17.900  0.2866E-83  0.3775E+02
  17.910  0.5753E-84  0.3775E+02
  17.920  0.2742E-84  0.3775E+02
  17.930  0.2352E-84  0.3775E+02
  17.940  0.2302E-84  0.3775E+02
  17.950  0.2295E-84  0.3775E+02
  17.960  0.2295E-84  0.3775E+02
  17.970  0.2295E-84  0.3775E+02
  17.980  0.2295E-84  0.3775E+02
  17.990  0.2295E-84  0.3775E+02
  18.000  0.2295E-84  0.3775E+02
  18.010  0.2295E-84  0.3775E+02
  18.020  0.2295E-84  0.3775E+02
  18.030  0.2295E-84  0.3775E+02
  18.040  0.2295E-84  0.3775E+02
  18.050  0.2295E-84  0.3775E+02
  18.060  0.2295E-84  0.3775E+02
  18.070  0.2295E-84  0.3775E+02
  18.080  0.2295E-84  0.3775E+02
  18.090  0.2295E-84  0.3775E+02
  18.100  0.2295E-84  0.3775E+02
  18.110  0.2295E-84  0.3775E+02
  18.120  0.2295E-84  0.3775E+02
  18.130  0.2295E-84  0.3775E+02
  18.140  0.2295E-84  0.3775E+02
  18.150  0.2295E-84  0.3775E+02
  18.160  0.2295E-84  0.3775E+02
  18.170  0.2295E-84  0.3775E+02
  18.180  0.2295E-84  0.3775E+02
  18.190  0.2295E-84  0.3775E+02
  18.200  0.2295E-84  0.3775E+02
  18.210  0.2295E-84  0.3775E+02
  18.220  0.2295E-84  0.3775E+02
  18.230  0.2295E-84  0.3775E+02
  18.240  0.2295E-84  0.3775E+02
  18.250  0.2295E-84  0.3775E+02
  18.260  0.2295E-84  0.3775E+02
  18.270  0.2295E-84  0.3775E+02
  18.280  0.2295E-84  0.3775E+02
  18.290  0.2295E-84  0.3775E+02
  18.300  0.2295E-84  0.3775E+02
  18.310  0.2295E-84  0.3775E+02
  18.320  0.2295E-84  0.3775E+02
  18.330  0.2295E-84  0.3775E+02
  18.340  0.2295E-84  0.3775E+02
  18.350  0.2295E-84  0.3775E+02
  18.360  0.2295E-84  0.3775E+02
  18.370  0.2295E-84  0.3775E+02
  18.380  0.2295E-84  0.3775E+02
  18.390  0.2295E-84  0.3775E+02
  18.400  0.2295E-84  0.3775E+02
  18.410  0.2295E-84  0.3775E+02
  18.420  0.2295E-84  0.3775E+02
  18.430  0.2295E-84  0.3775E+02
  18.440  0.2295E-84  0.3775E+02
  18.450  0.2295E-84  0.3775E+02
  18.460  0.2295E-84  0.3775E+02
  18.470  0.2295E-84  0.3775E+02
  18.480  0.2295E-84  0.3775E+02
  18.490  0.2295E-84  0.3775E+02
  18.500  0.2295E-84  0.3775E+02
  18.510  0.2295E-84  0.3775E+02
  18.520  0.2295E-84  0.3775E+02
  18.530  0.2295E-84  0.3775E+02
  18.540  0.2295E-84  0.3775E+02
  18.550  0.2295E-84  0.3775E+02
  18.560  0.2295E-84  0.3775E+02
  18.570  0.2295E-84  0.3775E+02
  18.580  0.2295E-84  0.3775E+02
  18.590  0.2295E-84  0.3775E+02
  18.600  0.2295E-84  0.3775E+02
  18.610  0.2295E-84  0.3775E+02
  18.620  0.2295E-84  0.3775E+02
  18.630  0.2295E-84  0.3775E+02
  18.640  0.2295E-84  0.3775E+02
  18.650  0.2295E-84  0.3775E+02
  18.660  0.2295E-84  0.3775E+02
  18.670  0.2295E-84  0.3775E+02
  18.680  0.2295E-84  0.3775E+02
  18.690  0.2295E-84  0.3775E+02
  18.700  0.2295E-84  0.3775E+02
  18.710  0.2295E-84  0.3775E+02
  18.720  0.2295E-84  0.3775E+02
  18.730  0.2295E-84  0.3775E+02
  18.740  0.2295E-84  0.3775E+02
  18.750  0.2295E-84  0.3775E+02
  18.760  0.2295E-84  0.3775E+02
  18.770  0.2295E-84  0.3775E+02
  18.780  0.2295E-84  0.3775E+02
  18.790  0.2295E-84  0.3775E+02
  18.800  0.2295E-84  0.3775E+02
  18.810  0.2295E-84  0.3775E+02
  18.820  0.2295E-84  0.3775E+02
  18.830  0.2295E-84  0.3775E+02
  18.840  0.2295E-84  0.3775E+02
  18.850  0.2295E-84  0.3775E+02
  18.860  0.2295E-84  0.3775E+02
  18.870  0.2295E-84  0.3775E+02
  18.880  0.2295E-84  0.3775E+02
  18.890  0.2295E-84  0.3775E+02
  18.900  0.2295E-84  0.3775E+02
  18.910  0.2295E-84  0.3775E+02
  18.920  0.2295E-84  0.3775E+02
  18.930  0.2295E-84  0.3775E+02
  18.940  0.2295E-84  0.3775E+02
  18.950  0.2295E-84  0.3775E+02
  18.960  0.2295E-84  0.3775E+02
  18.970  0.2295E-84  0.3775E+02
  18.980  0.2295E-84  0.3775E+02
  18.990  0.2295E-84  0.3775E+02
  19.000  0.2295E-84  0.3775E+02
  19.010  0.2295E-84  0.3775E+02
  19.020  0.2295E-84  0.3775E+02
  19.030  0.2295E-84  0.3775E+02
  19.040  0.2295E-84  0.3775E+02
  19.050  0.2295E-84  0.3775E+02
  19.060  0.2295E-84  0.3775E+02
  19.070  0.2295E-84  0.3775E+02
  19.080  0.2295E-84  0.3775E+02
  19.090  0.2295E-84  0.3775E+02
  19.100  0.2295E-84  0.3775E+02
  19.110  0.2295E-84  0.3775E+02
  19.120  0.2295E-84  0.3775E+02
  19.130  0.2295E-84  0.3775E+02
  19.140  0.2295E-84  0.3775E+02
  19.150  0.2295E-84  0.3775E+02
  19.160  0.2295E-84  0.3775E+02
  19.170  0.2295E-84  0.3775E+02
  19.180  0.2295E-84  0.3775E+02
  19.190  0.2295E-84  0.3775E+02
  19.200  0.2295E-84  0.3775E+02
  19.210  0.2295E-84  0.3775E+02
  19.220  0.2295E-84  0.3775E+02
  19.230  0.2295E-84  0.3775E+02
  19.240  0.2295E-84  0.3775E+02
  19.250  0.2295E-84  0.3775E+02
  19.260  0.2295E-84  0.3775E+02
  19.270  0.2295E-84  0.3775E+02
  19.280  0.2295E-84  0.3775E+02
  19.290  0.2295E-84  0.3775E+02
  19.300  0.2295E-84  0.3775E+02
  19.310  0.2295E-84  0.3775E+02
  19.320  0.2295E-84  0.3775E+02
  19.330  0.2295E-84  0.3775E+02
  19.340  0.2295E-84  0.3775E+02
  19.350  0.2295E-84  0.3775E+02
  19.360  0.2295E-84  0.3775E+02
  19.370  0.2295E-84  0.3775E+02
  19.380  0.2295E-84  0.3775E+02
  19.390  0.2295E-84  0.3775E+02
  19.400  0.2295E-84  0.3775E+02
  19.410  0.2295E-84  0.3775E+02
  19.420  0.2295E-84  0.3775E+02
  19.430  0.2295E-84  0.3775E+02
  19.440  0.2295E-84  0.3775E+02
  19.450  0.2295E-84  0.3775E+02
  19.460  0.2295E-84  0.3775E+02
  19.470  0.2295E-84  0.3775E+02
  19.480  0.2295E-84  0.3775E+02
  19.490  0.2295E-84  0.3775E+02
  19.500  0.2295E-84  0.3775E+02
  19.510  0.2295E-84  0.3775E+02
  19.520  0.2295E-84  0.3775E+02
  19.530  0.2295E-84  0.3775E+02
  19.540  0.2295E-84  0.3775E+02
  19.550  0.2295E-84  0.3775E+02
  19.560  0.2295E-84  0.3775E+02
  19.570  0.2295E-84  0.3775E+02
  19.580  0.2295E-84  0.3775E+02
  19.590  0.2295E-84  0.3775E+02
  19.600  0.2295E-84  0.3775E+02
  19.610  0.2295E-84  0.3775E+02
  19.620  0.2295E-84  0.3775E+02
  19.630  0.2295E-84  0.3775E+02
  19.640  0.2295E-84  0.3775E+02
  19.650  0.2295E-84  0.3775E+02
  19.660  0.2295E-84  0.3775E+02
  19.670  0.2295E-84  0.3775E+02
  19.680  0.2295E-84  0.3775E+02
  19.690  0.2295E-84  0.3775E+02
  19.700  0.2295E-84  0.3775E+02
  19.710  0.2295E-84  0.3775E+02
  19.720  0.2295E-84  0.3775E+02
  19.730  0.2295E-84  0.3775E+02
  19.740  0.2295E-84  0.3775E+02
  19.750  0.2295E-84  0.3775E+02
  19.760  0.2295E-84  0.3775E+02
  19.770  0.2295E-84  0.3775E+02
  19.780  0.2295E-84  0.3775E+02
  19.790  0.2295E-84  0.3775E+02
  19.800  0.2295E-84  0.3775E+02
  19.810  0.2295E-84  0.3775E+02
  19.820  0.2295E-84  0.3775E+02
  19.830  0.2295E-84  0.3775E+02
  19.840  0.2295E-84  0.3775E+02
  19.850  0.2295E-84  0.3775E+02
  19.860  0.2295E-84  0.3775E+02
  19.870  0.2295E-84  0.3775E+02
  19.880  0.2295E-84  0.3775E+02
  19.890  0.2295E-84  0.3775E+02
  19.900  0.2295E-84  0.3775E+02
  19.910  0.2295E-84  0.3775E+02
  19.920  0.2295E-84  0.3775E+02
  19.930  0.2295E-84  0.3775E+02
  19.940  0.2295E-84  0.3775E+02
  19.950  0.2295E-84  0.3775E+02
  19.960  0.2295E-84  0.3775E+02
  19.970  0.2295E-84  0.3775E+02
  19.980  0.2295E-84  0.3775E+02
  19.990  0.2295E-84  0.3775E+02
  20.000  0.2295E-84  0.3775E+02
  20.010  0.2295E-84  0.3775E+02
  20.020  0.2295E-84  0.3775E+02
  20.030  0.2295E-84  0.3775E+02
  20.040  0.2295E-84  0.3775E+02
  20.050  0.2295E-84  0.3775E+02
  20.060  0.2295E-84  0.3775E+02
  20.070  0.2295E-84  0.3775E+02
  20.080  0.2295E-84  0.3775E+02
  20.090  0.2295E-84  0.3775E+02
  20.100  0.2295E-84  0.3775E+02
  20.110  0.2295E-84  0.3775E+02
  20.120  0.2295E-84  0.3775E+02
  20.130  0.2295E-84  0.3775E+02
  20.140  0.2295E-84  0.3775E+02
  20.150  0.2295E-84  0.3775E+02
  20.160  0.2295E-84  0.3775E+02
  20.170  0.2295E-84  0.3775E+02
  20.180  0.2295E-84  0.3775E+02
  20.190  0.2295E-84  0.3775E+02
  20.200  0.2295E-84  0.3775E+02
  20.210  0.2295E-84  0.3775E+02
  20.220  0.2295E-84  0.3775E+02
  20.230  0.2295E-84  0.3775E+02
  20.240  0.2295E-84  0.3775E+02
  20.250  0.2295E-84  0.3775E+02
  20.260  0.2295E-84  0.3775E+02
  20.270  0.2295E-84  0.3775E+02
  20.280  0.2295E-84  0.3775E+02
  20.290  0.2295E-84  0.3775E+02
  20.300  0.2295E-84  0.3775E+02
  20.310  0.2295E-84  0.3775E+02
  20.320  0.2295E-84  0.3775E+02
  20.330  0.2295E-84  0.3775E+02
  20.340  0.2295E-84  0.3775E+02
  20.350  0.2295E-84  0.3775E+02
  20.360  0.2295E-84  0.3775E+02
  20.370  0.2295E-84  0.3775E+02
  20.380  0.2295E-84  0.3775E+02
  20.390  0.2295E-84  0.3775E+02
  20.400  0.2295E-84  0.3775E+02
  20.410  0.2295E-84  0.3775E+02
  20.420  0.2295E-84  0.3775E+02
  20.430  0.2295E-84  0.3775E+02
  20.440  0.2295E-84  0.3775E+02
  20.450  0.2295E-84  0.3775E+02
  20.460  0.2295E-84  0.3775E+02
  20.470  0.2295E-84  0.3775E+02
  20.480  0.2295E-84  0.3775E+02
  20.490  0.2295E-84  0.3775E+02
  20.500  0.2295E-84  0.3775E+02
  20.510  0.2295E-84  0.3775E+02
  20.520  0.2295E-84  0.3775E+02
  20.530  0.2295E-84  0.3775E+02
  20.540  0.2295E-84  0.3775E+02
  20.550  0.2295E-84  0.3775E+02
  20.560  0.2295E-84  0.3775E+02
  20.570  0.2295E-84  0.3775E+02
  20.580  0.2295E-84  0.3775E+02
  20.590  0.2295E-84  0.3775E+02
  20.600  0.2295E-84  0.3775E+02
  20.610  0.2295E-84  0.3775E+02
  20.620  0.2295E-84  0.3775E+02
  20.630  0.2295E-84  0.3775E+02
  20.640  0.2295E-84  0.3775E+02
  20.650  0.2295E-84  0.3775E+02
  20.660  0.2295E-84  0.3775E+02
  20.670  0.2295E-84  0.3775E+02
  20.680  0.2295E-84  0.3775E+02
  20.690  0.2295E-84  0.3775E+02
  20.700  0.2295E-84  0.3775E+02
  20.710  0.2295E-84  0.3775E+02
  20.720  0.2295E-84  0.3775E+02
  20.730  0.2295E-84  0.3775E+02
  20.740  0.2295E-84  0.3775E+02
  20.750  0.2295E-84  0.3775E+02
  20.760  0.2295E-84  0.3775E+02
  20.770  0.2295E-84  0.3775E+02
  20.780  0.2295E-84  0.3775E+02
  20.790  0.2295E-84  0.3775E+02
  20.800  0.2295E-84  0.3775E+02
  20.810  0.2295E-84  0.3775E+02
  20.820  0.2295E-84  0.3775E+02
  20.830  0.2295E-84  0.3775E+02
  20.840  0.2295E-84  0.3775E+02
  20.850  0.2295E-84  0.3775E+02
  20.860  0.2295E-84  0.3775E+02
  20.870  0.2295E-84  0.3775E+02
  20.880  0.2295E-84  0.3775E+02
  20.890  0.2295E-84  0.3775E+02
  20.900  0.2295E-84  0.3775E+02
  20.910  0.2295E-84  0.3775E+02
  20.920  0.2295E-84  0.3775E+02
  20.930  0.2295E-84  0.3775E+02
  20.940  0.2295E-84  0.3775E+02
  20.950  0.2295E-84  0.3775E+02
  20.960  0.2295E-84  0.3775E+02
  20.970  0.2295E-84  0.3775E+02
  20.980  0.2295E-84  0.3775E+02
  20.990  0.2295E-84  0.3775E+02
  21.000  0.2295E-84  0.3775E+02
  21.010  0.2295E-84  0.3775E+02
  21.020  0.2295E-84  0.3775E+02
  21.030  0.2295E-84  0.3775E+02
  21.040  0.2295E-84  0.3775E+02
  21.050  0.2295E-84  0.3775E+02
  21.060  0.2295E-84  0.3775E+02
  21.070  0.2295E-84  0.3775E+02
  21.080  0.2295E-84  0.3775E+02
  21.090  0.2295E-84  0.3775E+02
  21.100  0.2295E-84  0.3775E+02
  21.110  0.2295E-84  0.3775E+02
  21.120  0.2295E-84  0.3775E+02
  21.130  0.2295E-84  0.3775E+02
  21.140  0.2295E-84  0.3775E+02
  21.150  0.2295E-84  0.3775E+02
  21.160  0.2295E-84  0.3775E+02
  21.170  0.2295E-84  0.3775E+02
  21.180  0.2295E-84  0.3775E+02
  21.190  0.2295E-84  0.3775E+02
  21.200  0.2295E-84  0.3775E+02
  21.210  0.2295E-84  0.3775E+02
  21.220  0.2295E-84  0.3775E+02
  21.230  0.2295E-84  0.3775E+02
  21.240  0.2295E-84  0.3775E+02
  21.250  0.2295E-84  0.3775E+02
  21.260  0.2295E-84  0.3775E+02
  21.270  0.2295E-84  0.3775E+02
  21.280  0.2295E-84  0.3775E+02
  21.290  0.2295E-84  0.3775E+02
  21.300  0.2295E-84  0.3775E+02
  21.310  0.2295E-84  0.3775E+02
  21.320  0.2295E-84  0.3775E+02
  21.330  0.2295E-84  0.3775E+02
  21.340  0.2295E-84  0.3775E+02
  21.350  0.2295E-84  0.3775E+02
  21.360  0.2295E-84  0.3775E+02
  21.370  0.2295E-84  0.3775E+02
  21.380  0.2295E-84  0.3775E+02
  21.390  0.2295E-84  0.3775E+02
  21.400  0.2295E-84  0.3775E+02
  21.410  0.2295E-84  0.3775E+02
  21.420  0.2295E-84  0.3775E+02
  21.430  0.2295E-84  0.3775E+02
  21.440  0.2295E-84  0.3775E+02
  21.450  0.2295E-84  0.3775E+02
  21.460  0.2295E-84  0.3775E+02
  21.470  0.2295E-84  0.3775E+02
  21.480  0.2295E-84  0.3775E+02
  21.490  0.2295E-84  0.3775E+02
  21.500  0.2295E-84  0.3775E+02
  21.510  0.2295E-84  0.3775E+02
  21.520  0.2295E-84  0.3775E+02
  21.530  0.2295E-84  0.3775E+02
  21.540  0.2295E-84  0.3775E+02
  21.550  0.2295E-84  0.3775E+02
  21.560  0.2295E-84  0.3775E+02
  21.570  0.2295E-84  0.3775E+02
  21.580  0.2295E-84  0.3775E+02
  21.590  0.2295E-84  0.3775E+02
  21.600  0.2295E-84  0.3775E+02
  21.610  0.2295E-84  0.3775E+02
  21.620  0.2295E-84  0.3775E+02
  21.630  0.2295E-84  0.3775E+02
  21.640  0.2295E-84  0.3775E+02
  21.650  0.2295E-84  0.3775E+02
  21.660  0.2295E-84  0.3775E+02
  21.670  0.2295E-84  0.3775E+02
  21.680  0.2295E-84  0.3775E+02
  21.690  0.2295E-84  0.3775E+02
  21.700  0.2295E-84  0.3775E+02
  21.710  0.2295E-84  0.3775E+02
  21.720  0.2295E-84  0.3775E+02
  21.730  0.2295E-84  0.3775E+02
  21.740  0.2295E-84  0.3775E+02
  21.750  0.2295E-84  0.3775E+02
  21.760  0.2295E-84  0.3775E+02
  21.770  0.2295E-84  0.3775E+02
  21.780  0.2295E-84  0.3775E+02
  21.790  0.2295E-84  0.3775E+02
  21.800  0.2295E-84  0.3775E+02
  21.810  0.2295E-84  0.3775E+02
  21.820  0.2295E-84  0.3775E+02
  21.830  0.2295E-84  0.3775E+02
  21.840  0.2295E-84  0.3775E+02
  21.850  0.2295E-84  0.3775E+02
  21.860  0.2295E-84  0.3775E+02
  21.870  0.2295E-84  0.3775E+02
  21.880  0.2295E-84  0.3775E+02
  21.890  0.2295E-84  0.3775E+02
  21.900  0.2295E-84  0.3775E+02
  21.910  0.2295E-84  0.3775E+02
  21.920  0.2295E-84  0.3775E+02
  21.930  0.2295E-84  0.3775E+02
  21.940  0.2295E-84  0.3775E+02
  21.950  0.2295E-84  0.3775E+02
  21.960  0.2295E-84  0.3775E+02
  21.970  0.2295E-84  0.3775E+02
  21.980  0.2295E-84  0.3775E+02
  21.990  0.2295E-84  0.3775E+02
  22.000  0.2295E-84  0.3775E+02
  22.010  0.2295E-84  0.3775E+02
  22.020  0.2295E-84  0.3775E+02
  22.030  0.2295E-84  0.3775E+02
  22.040  0.2295E-84  0.3775E+02
  22.050  0.2295E-84  0.3775E+02
  22.060  0.2295E-84  0.3775E+02
  22.070  0.2295E-84  0.3775E+02
  22.080  0.2295E-84  0.3775E+02
  22.090  0.2295E-84  0.3775E+02
  22.100  0.2295E-84  0.3775E+02
  22.110  0.2295E-84  0.3775E+02
  22.120  0.2295E-84  0.3775E+02
  22.130  0.2295E-84  0.3775E+02
  22.140  0.2295E-84  0.3775E+02
  22.150  0.2295E-84  0.3775E+02
  22.160  0.2295E-84  0.3775E+02
  22.170  0.2295E-84  0.3775E+02
  22.180  0.2295E-84  0.3775E+02
  22.190  0.2295E-84  0.3775E+02
  22.200  0.2295E-84  0.3775E+02
  22.210  0.2295E-84  0.3775E+02
  22.220  0.2295E-84  0.3775E+02
  22.230  0.2295E-84  0.3775E+02
  22.240  0.2295E-84  0.3775E+02
  22.250  0.2295E-84  0.3775E+02
  22.260  0.2295E-84  0.3775E+02
  22.270  0.2295E-84  0.3775E+02
  22.280  0.2295E-84  0.3775E+02
  22.290  0.2295E-84  0.3775E+02
  22.300  0.2295E-84  0.3775E+02
  22.310  0.2295E-84  0.3775E+02
  22.320  0.2295E-84  0.3775E+02
  22.330  0.2295E-84  0.3775E+02
  22.340  0.2295E-84  0.3775E+02
  22.350  0.2295E-84  0.3775E+02
  22.360  0.2295E-84  0.3775E+02
  22.370  0.2295E-84  0.3775E+02
  22.380  0.2295E-84  0.3775E+02
  22.390  0.2295E-84  0.3775E+02
  22.400  0.2295E-84  0.3775E+02
  22.410  0.2295E-84  0.3775E+02
  22.420  0.2295E-84  0.3775E+02
  22.430  0.2295E-84  0.3775E+02
  22.440  0.2295E-84  0.3775E+02
  22.450  0.2295E-84  0.3775E+02
  22.460  0.2295E-84  0.3775E+02
  22.470  0.2295E-84  0.3775E+02
  22.480  0.2295E-84  0.3775E+02
  22.490  0.2295E-84  0.3775E+02
  22.500  0.2295E-84  0.3775E+02
  22.510  0.2295E-84  0.3775E+02
  22.520  0.2295E-84  0.3775E+02
  22.530  0.2295E-84  0.3775E+02
  22.540  0.2295E-84  0.3775E+02
  22.550  0.2295E-84  0.3775E+02
  22.560  0.2295E-84  0.3775E+02
  22.570  0.2295E-84  0.3775E+02
  22.580  0.2295E-84  0.3775E+02
  22.590  0.2295E-84  0.3775E+02
  22.600  0.2295E-84  0.3775E+02
  22.610  0.2295E-84  0.3775E+02
  22.620  0.2295E-84  0.3775E+02
  22.630  0.2295E-84  0.3775E+02
  22.640  0.2295E-84  0.3775E+02
  22.650  0.2295E-84  0.3775E+02
  22.660  0.2295E-84  0.3775E+02
  22.670  0.2295E-84  0.3775E+02
  22.680  0.2295E-84  0.3775E+02
  22.690  0.2295E-84  0.3775E+02
  22.700  0.2295E-84  0.3775E+02
  22.710  0.2295E-84  0.3775E+02
  22.720  0.2295E-84  0.3775E+02
  22.730  0.2295E-84  0.3775E+02
  22.740  0.2295E-84  0.3775E+02
  22.750  0.2295E-84  0.3775E+02
  22.760  0.2295E-84  0.3775E+02
  22.770  0.2295E-84  0.3775E+02
  22.780  0.2295E-84  0.3775E+02
  22.790  0.2295E-84  0.3775E+02
  22.800  0.2295E-84  0.3775E+02
  22.810  0.2295E-84  0.3775E+02
  22.820  0.2295E-84  0.3775E+02
  22.830  0.2295E-84  0.3775E+02
  22.840  0.2295E-84  0.3775E+02
  22.850  0.2295E-84  0.3775E+02
  22.860  0.2295E-84  0.3775E+02
  22.870  0.2295E-84  0.3775E+02
  22.880  0.2295E-84  0.3775E+02
  22.890  0.2295E-84  0.3775E+02
  22.900  0.2295E-84  0.3775E+02
  22.910  0.2295E-84  0.3775E+02
  22.920  0.2295E-84  0.3775E+02
  22.930  0.2295E-84  0.3775E+02
  22.940  0.2295E-84  0.3775E+02
  22.950  0.2295E-84  0.3775E+02
  22.960  0.2295E-84  0.3775E+02
  22.970  0.2295E-84  0.3775E+02
  22.980  0.2295E-84  0.3775E+02
  22.990  0.2295E-84  0.3775E+02
  23.000  0.2295E-84  0.3775E+02
  23.010  0.2295E-84  0.3775E+02
  23.020  0.2295E-84  0.3775E+02
  23.030  0.2295E-84  0.3775E+02
  23.040  0.2295E-84  0.3775E+02
  23.050  0.2295E-84  0.3775E+02
  23.060  0.2295E-84  0.3775E+02
  23.070  0.2295E-84  0.3775E+02
  23.080  0.2295E-84  0.3775E+02
  23.090  0.2295E-84  0.3775E+02
  23.100  0.2295E-84  0.3775E+02
  23.110  0.2295E-84  0.3775E+02
  23.120  0.2295E-84  0.3775E+02
  23.130  0.2295E-84  0.3775E+02
  23.140  0.2295E-84  0.3775E+02
  23.150  0.2295E-84  0.3775E+02
  23.160  0.2295E-84  0.3775E+02
  23.170  0.2295E-84  0.3775E+02
  23.180  0.2295E-84  0.3775E+02
  23.190  0.2295E-84  0.3775E+02
  23.200  0.2295E-84  0.3775E+02
  23.210  0.2295E-84  0.3775E+02
  23.220  0.2295E-84  0.3775E+02
  23.230  0.2295E-84  0.3775E+02
  23.240  0.2295E-84  0.3775E+02
  23.250  0.2295E-84  0.3775E+02
  23.260  0.2295E-84  0.3775E+02
  23.270  0.2295E-84  0.3775E+02
  23.280  0.2295E-84  0.3775E+02
  23.290  0.2295E-84  0.3775E+02
  23.300  0.2295E-84  0.3775E+02
  23.310  0.2295E-84  0.3775E+02
  23.320  0.2295E-84  0.3775E+02
  23.330  0.2295E-84  0.3775E+02
  23.340  0.2295E-84  0.3775E+02
  23.350  0.2295E-84  0.3775E+02
  23.360  0.2295E-84  0.3775E+02
  23.370  0.2295E-84  0.3775E+02
  23.380  0.2295E-84  0.3775E+02
  23.390  0.2295E-84  0.3775E+02
  23.400  0.2295E-84  0.3775E+02
  23.410  0.2295E-84  0.3775E+02
  23.420  0.2295E-84  0.3775E+02
  23.430  0.2295E-84  0.3775E+02
  23.440  0.2295E-84  0.3775E+02
  23.450  0.2295E-84  0.3775E+02
  23.460  0.2295E-84  0.3775E+02
  23.470  0.2295E-84  0.3775E+02
  23.480  0.2295E-84  0.3775E+02
  23.490  0.2295E-84  0.3775E+02
  23.500  0.2295E-84  0.3775E+02
  23.510  0.2295E-84  0.3775E+02
  23.520  0.2295E-84  0.3775E+02
  23.530  0.2295E-84  0.3775E+02
  23.540  0.2295E-84  0.3775E+02
  23.550  0.2295E-84  0.3775E+02
  23.560  0.2295E-84  0.3775E+02
  23.570  0.2295E-84  0.3775E+02
  23.580  0.2295E-84  0.3775E+02
  23.590  0.2295E-84  0.3775E+02
  23.600  0.2295E-84  0.3775E+02
  23.610  0.2295E-84  0.3775E+02
  23.620  0.2295E-84  0.3775E+02
  23.630  0.2295E-84  0.3775E+02
  23.640  0.2295E-84  0.3775E+02
  23.650  0.2295E-84  0.3775E+02
  23.660  0.2295E-84  0.3775E+02
  23.670  0.2295E-84  0.3775E+02
  23.680  0.2295E-84  0.3775E+02
  23.690  0.2295E-84  0.3775E+02
  23.700  0.2295E-84  0.3775E+02
  23.710  0.2295E-84  0.3775E+02
  23.720  0.2295E-84  0.3775E+02
  23.730  0.2295E-84  0.3775E+02
  23.740  0.2295E-84  0.3775E+02
  23.750  0.2295E-84  0.3775E+02
  23.760  0.2295E-84  0.3775E+02
  23.770  0.2295E-84  0.3775E+02
  23.780  0.2295E-84  0.3775E+02
  23.790  0.2295E-84  0.3775E+02
  23.800  0.2295E-84  0.3775E+02
  23.810  0.2295E-84  0.3775E+02
  23.820  0.2295E-84  0.3775E+02
  23.830  0.2295E-84  0.3775E+02
  23.840  0.2295E-84  0.3775E+02
  23.850  0.2295E-84  0.3775E+02
  23.860  0.2295E-84  0.3775E+02
  23.870  0.2295E-84  0.3775E+02
  23.880  0.2295E-84  0.3775E+02
  23.890  0.2295E-84  0.3775E+02
  23.900  0.2295E-84  0.3775E+02
  23.910  0.2295E-84  0.3775E+02
  23.920  0.2295E-84  0.3775E+02
  23.930  0.2295E-84  0.3775E+02
  23.940  0.2295E-84  0.3775E+02
  23.950  0.2295E-84  0.3775E+02
  23.960  0.2295E-84  0.3775E+02
  23.970  0.2295E-84  0.3775E+02
  23.980  0.2295E-84  0.3775E+02
  23.990  0.2295E-84  0.3775E+02
  24.000  0.2295E-84  0.3775E+02
  24.010  0.2295E-84  0.3775E+02
  24.020  0.2295E-84  0.3775E+02
  24.030  0.2295E-84  0.3775E+02
  24.040  0.2295E-84  0.3775E+02
  24.050  0.2295E-84  0.3775E+02
  24.060  0.2295E-84  0.3775E+02
  24.070  0.2295E-84  0.3775E+02
  24.080  0.2295E-84  0.3775E+02
  24.090  0.2295E-84  0.3775E+02
  24.100  0.2295E-84  0.3775E+02
  24.110  0.2295E-84  0.3775E+02
  24.120  0.2295E-84  0.3775E+02
  24.130  0.2295E-84  0.3775E+02
  24.140  0.2295E-84  0.3775E+02
  24.150  0.2295E-84  0.3775E+02
  24.160  0.2295E-84  0.3775E+02
  24.170  0.2295E-84  0.3775E+02
  24.180  0.2295E-84  0.3775E+02
  24.190  0.2295E-84  0.3775E+02
  24.200  0.2295E-84  0.3775E+02
  24.210  0.2295E-84  0.3775E+02
  24.220  0.2295E-84  0.3775E+02
  24.230  0.2295E-84  0.3775E+02
  24.240  0.2295E-84  0.3775E+02
  24.250  0.2295E-84  0.3775E+02
  24.260  0.2295E-84  0.3775E+02
  24.270  0.2295E-84  0.3775E+02
  24.280  0.2295E-84  0.3775E+02
  24.290  0.2295E-84  0.3775E+02
  24.300  0.2295E-84  0.3775E+02
  24.310  0.2295E-84  0.3775E+02
  24.320  0.2295E-84  0.3775E+02
  24.330  0.2295E-84  0.3775E+02
  24.340  0.2295E-84  0.3775E+02
  24.350  0.2295E-84  0.3775E+02
  24.360  0.2295E-84  0.3775E+02
  24.370  0.2295E-84  0.3775E+02
  24.380  0.2295E-84  0.3775E+02
  24.390  0.2295E-84  0.3775E+02
  24.400  0.2295E-84  0.3775E+02
  24.410  0.2295E-84  0.3775E+02
  24.420  0.2295E-84  0.3775E+02
  24.430  0.2295E-84  0.3775E+02
  24.440  0.2295E-84  0.3775E+02
  24.450  0.2295E-84  0.3775E+02
  24.460  0.2295E-84  0.3775E+02
  24.470  0.2295E-84  0.3775E+02
  24.480  0.2295E-84  0.3775E+02
  24.490  0.2295E-84  0.3775E+02
  24.500  0.2295E-84  0.3775E+02
  24.510  0.2295E-84  0.3775E+02
  24.520  0.2295E-84  0.3775E+02
  24.530  0.2295E-84  0.3775E+02
  24.540  0.2295E-84  0.3775E+02
  24.550  0.2295E-84  0.3775E+02
  24.560  0.2295E-84  0.3775E+02
  24.570  0.2295E-84  0.3775E+02
  24.580  0.2295E-84  0.3775E+02
  24.590  0.2295E-84  0.3775E+02
  24.600  0.2295E-84  0.3775E+02
  24.610  0.2295E-84  0.3775E+02
  24.620  0.2295E-84  0.3775E+02
  24.630  0.2295E-84  0.3775E+02
  24.640  0.2295E-84  0.3775E+02
  24.650  0.2295E-84  0.3775E+02
  24.660  0.2295E-84  0.3775E+02
  24.670  0.2295E-84  0.3775E+02
  24.680  0.2295E-84  0.3775E+02
  24.690  0.2295E-84  0.3775E+02
  24.700  0.2295E-84  0.3775E+02
  24.710  0.2295E-84  0.3775E+02
  24.720  0.2295E-84  0.3775E+02
  24.730  0.2295E-84  0.3775E+02
  24.740  0.2295E-84  0.3775E+02
  24.750  0.2295E-84  0.3775E+02
  24.760  0.2295E-84  0.3775E+02
  24.770  0.2295E-84  0.3775E+02
  24.780  0.2295E-84  0.3775E+02
  24.790  0.2295E-84  0.3775E+02
  24.800  0.2295E-84  0.3775E+02
  24.810  0.2295E-84  0.3775E+02
  24.820  0.2295E-84  0.3775E+02
  24.830  0.2295E-84  0.3775E+02
  24.840  0.2295E-84  0.3775E+02
  24.850  0.2295E-84  0.3775E+02
  24.860  0.2295E-84  0.3775E+02
  24.870  0.2295E-84  0.3775E+02
  24.880  0.2295E-84  0.3775E+02
  24.890  0.2295E-84  0.3775E+02
  24.900  0.2295E-84  0.3775E+02
  24.910  0.2295E-84  0.3775E+02
  24.920  0.2295E-84  0.3775E+02
  24.930  0.2295E-84  0.3775E+02
  24.940  0.2295E-84  0.3775E+02
  24.950  0.2295E-84  0.3775E+02
  24.960  0.2295E-84  0.3775E+02
  24.970  0.2295E-84  0.3775E+02
  24.980  0.2295E-84  0.3775E+02
  24.990  0.2295E-84  0.3775E+02
  25.000  0.2295E-84  0.3775E+02
  25.010  0.2295E-84  0.3775E+02
  25.020  0.2295E-84  0.3775E+02
  25.030  0.2295E-84  0.3775E+02
  25.040  0.2295E-84  0.3775E+02
  25.050  0.2295E-84  0.3775E+02
  25.060  0.2295E-84  0.3775E+02
  25.070  0.2295E-84  0.3775E+02
  25.080  0.2295E-84  0.3775E+02
  25.090  0.2295E-84  0.3775E+02
  25.100  0.2295E-84  0.3775E+02
  25.110  0.2295E-84  0.3775E+02
  25.120  0.2295E-84  0.3775E+02
  25.130  0.2295E-84  0.3775E+02
  25.140  0.2295E-84  0.3775E+02
  25.150  0.2295E-84  0.3775E+02
  25.160  0.2295E-84  0.3775E+02
  25.170  0.2295E-84  0.3775E+02
  25.180  0.2295E-84  0.3775E+02
  25.190  0.2295E-84  0.3775E+02
  25.200  0.2295E-84  0.3775E+02
  25.210  0.2295E-84  0.3775E+02
  25.220  0.2295E-84  0.3775E+02
  25.230  0.2295E-84  0.3775E+02
  25.240  0.2295E-84  0.3775E+02
  25.250  0.2295E-84  0.3775E+02
  25.260  0.2295E-84  0.3775E+02
  25.270  0.2295E-84  0.3775E+02
  25.280  0.2295E-84  0.3775E+02
  25.290  0.2295E-84  0.3775E+02
  25.300  0.2295E-84  0.3775E+02
  25.310  0.2295E-84  0.3775E+02
  25.320  0.2295E-84  0.3775E+02
  25.330  0.2295E-84  0.3775E+02
  25.340  0.2295E-84  0.3775E+02
  25.350  0.2295E-84  0.3775E+02
  25.360  0.2295E-84  0.3775E+02
  25.370  0.2295E-84  0.3775E+02
  25.380  0.2295E-84  0.3775E+02
  25.390  0.2295E-84  0.3775E+02
  25.400  0.2295E-84  0.3775E+02
  25.410  0.2295E-84  0.3775E+02
  25.420  0.2295E-84  0.3775E+02
  25.430  0.2295E-84  0.3775E+02
  25.440  0.2295E-84  0.3775E+02
  25.450  0.2295E-84  0.3775E+02
  25.460  0.2295E-84  0.3775E+02
  25.470  0.2295E-84  0.3775E+02
  25.480  0.2295E-84  0.3775E+02
  25.490  0.2295E-84  0.3775E+02
  25.500  0.2295E-84  0.3775E+02
  25.510  0.2295E-84  0.3775E+02
  25.520  0.2295E-84  0.3775E+02
  25.530  0.2295E-84  0.3775E+02
  25.540  0.2295E-84  0.3775E+02
  25.550  0.2295E-84  0.3775E+02
  25.560  0.2295E-84  0.3775E+02
  25.570  0.2295E-84  0.3775E+02
  25.580  0.2295E-84  0.3775E+02
  25.590  0.2295E-84  0.3775E+02
  25.600  0.2295E-84  0.3775E+02
  25.610  0.2295E-84  0.3775E+02
  25.620  0.2295E-84  0.3775E+02
  25.630  0.2295E-84  0.3775E+02
  25.640  0.2295E-84  0.3775E+02
  25.650  0.2295E-84  0.3775E+02
  25.660  0.2295E-84  0.3775E+02
  25.670  0.2295E-84  0.3775E+02
  25.680  0.2295E-84  0.3775E+02
  25.690  0.2295E-84  0.3775E+02
  25.700  0.2295E-84  0.3775E+02
  25.710  0.2295E-84  0.3775E+02
  25.720  0.2295E-84  0.3775E+02
  25.730  0.2295E-84  0.3775E+02
  25.740  0.2295E-84  0.3775E+02
  25.750  0.2295E-84  0.3775E+02
  25.760  0.2295E-84  0.3775E+02
  25.770  0.2295E-84  0.3775E+02
  25.780  0.2295E-84  0.3775E+02
  25.790  0.2295E-84  0.3775E+02
  25.800  0.2295E-84  0.3775E+02
  25.810  0.2295E-84  0.3775E+02
  25.820  0.2295E-84  0.3775E+02
  25.830  0.2295E-84  0.3775E+02
  25.840  0.2295E-84  0.3775E+02
  25.850  0.2295E-84  0.3775E+02
  25.860  0.2295E-84  0.3775E+02
  25.870  0.2295E-84  0.3775E+02
  25.880  0.2295E-84  0.3775E+02
  25.890  0.2295E-84  0.3775E+02
  25.900  0.2295E-84  0.3775E+02
  25.910  0.2295E-84  0.3775E+02
  25.920  0.2295E-84  0.3775E+02
  25.930  0.2295E-84  0.3775E+02
  25.940  0.2295E-84  0.3775E+02
  25.950  0.2295E-84  0.3775E+02
  25.960  0.2295E-84  0.3775E+02
  25.970  0.2295E-84  0.3775E+02
  25.980  0.2295E-84  0.3775E+02
  25.990  0.2295E-84  0.3775E+02
  26.000  0.2295E-84  0.3775E+02
  26.010  0.2295E-84  0.3775E+02
  26.020  0.2295E-84  0.3775E+02
  26.030  0.2295E-84  0.3775E+02
  26.040  0.2295E-84  0.3775E+02
  26.050  0.2295E-84  0.3775E+02
  26.060  0.2295E-84  0.3775E+02
  26.070  0.2295E-84  0.3775E+02
  26.080  0.2295E-84  0.3775E+02
  26.090  0.2295E-84  0.3775E+02
  26.100  0.2295E-84  0.3775E+02
  26.110  0.2295E-84  0.3775E+02
  26.120  0.2295E-84  0.3775E+02
  26.130  0.2295E-84  0.3775E+02
  26.140  0.2295E-84  0.3775E+02
  26.150  0.2295E-84  0.3775E+02
  26.160  0.2295E-84  0.3775E+02
  26.170  0.2295E-84  0.3775E+02
  26.180  0.2295E-84  0.3775E+02
  26.190  0.2295E-84  0.3775E+02
  26.200  0.2295E-84  0.3775E+02
  26.210  0.2295E-84  0.3775E+02
  26.220  0.2295E-84  0.3775E+02
  26.230  0.2295E-84  0.3775E+02
  26.240  0.2295E-84  0.3775E+02
  26.250  0.2295E-84  0.3775E+02
  26.260  0.2295E-84  0.3775E+02
  26.270  0.2295E-84  0.3775E+02
  26.280  0.2295E-84  0.3775E+02
  26.290  0.2295E-84  0.3775E+02
  26.300  0.2295E-84  0.3775E+02
  26.310  0.2295E-84  0.3775E+02
  26.320  0.2295E-84  0.3775E+02
  26.330  0.2295E-84  0.3775E+02
  26.340  0.2295E-84  0.3775E+02
  26.350  0.2295E-84  0.3775E+02
  26.360  0.2295E-84  0.3775E+02
  26.370  0.2295E-84  0.3775E+02
  26.380  0.2295E-84  0.3775E+02
  26.390  0.2295E-84  0.3775E+02
  26.400  0.2295E-84  0.3775E+02
  26.410  0.2295E-84  0.3775E+02
  26.420  0.2295E-84  0.3775E+02
  26.430  0.2295E-84  0.3775E+02
  26.440  0.2295E-84  0.3775E+02
  26.450  0.2295E-84  0.3775E+02
  26.460  0.2295E-84  0.3775E+02
  26.470  0.2295E-84  0.3775E+02
  26.480  0.2295E-84  0.3775E+02
  26.490  0.2295E-84  0.3775E+02
  26.500  0.2295E-84  0.3775E+02
  26.510  0.2295E-84  0.3775E+02
  26.520  0.2295E-84  0.3775E+02
  26.530  0.2295E-84  0.3775E+02
  26.540  0.2295E-84  0.3775E+02
  26.550  0.2295E-84  0.3775E+02
  26.560  0.2295E-84  0.3775E+02
  26.570  0.2295E-84  0.3775E+02
  26.580  0.2295E-84  0.3775E+02
  26.590  0.2295E-84  0.3775E+02
  26.600  0.2295E-84  0.3775E+02
  26.610  0.2295E-84  0.3775E+02
  26.620  0.2295E-84  0.3775E+02
  26.630  0.2295E-84  0.3775E+02
  26.640  0.2295E-84  0.3775E+02
  26.650  0.2295E-84  0.3775E+02
  26.660  0.2295E-84  0.3775E+02
  26.670  0.2295E-84  0.3775E+02
  26.680  0.2295E-84  0.3775E+02
  26.690  0.2295E-84  0.3775E+02
  26.700  0.2295E-84  0.3775E+02
  26.710  0.2295E-84  0.3775E+02
  26.720  0.2295E-84  0.3775E+02
  26.730  0.2295E-84  0.3775E+02
  26.740  0.2295E-84  0.3775E+02
  26.750  0.2295E-84  0.3775E+02
  26.760  0.2295E-84  0.3775E+02
  26.770  0.2295E-84  0.3775E+02
  26.780  0.2295E-84  0.3775E+02
  26.790  0.2295E-84  0.3775E+02
  26.800  0.2295E-84  0.3775E+02
  26.810  0.2295E-84  0.3775E+02
  26.820  0.2295E-84  0.3775E+02
  26.830  0.2295E-84  0.3775E+02
  26.840  0.2295E-84  0.3775E+02
  26.850  0.2295E-84  0.3775E+02
  26.860  0.2295E-84  0.3775E+02
  26.870  0.2295E-84  0.3775E+02
  26.880  0.2295E-84  0.3775E+02
  26.890  0.2295E-84  0.3775E+02
  26.900  0.2295E-84  0.3775E+02
  26.910  0.2295E-84  0.3775E+02
  26.920  0.2295E-84  0.3775E+02
  26.930  0.2295E-84  0.3775E+02
  26.940  0.2295E-84  0.3775E+02
  26.950  0.2295E-84  0.3775E+02
  26.960  0.2295E-84  0.3775E+02
  26.970  0.2295E-84  0.3775E+02
  26.980  0.2295E-84  0.3775E+02
  26.990  0.2295E-84  0.3775E+02
  27.000  0.2295E-84  0.3775E+02
  27.010  0.2295E-84  0.3775E+02
  27.020  0.2295E-84  0.3775E+02
  27.030  0.2295E-84  0.3775E+02
  27.040  0.2295E-84  0.3775E+02
  27.050  0.2295E-84  0.3775E+02
  27.060  0.2295E-84  0.3775E+02
  27.070  0.2295E-84  0.3775E+02
  27.080  0.2295E-84  0.3775E+02
  27.090  0.2295E-84  0.3775E+02
  27.100  0.2295E-84  0.3775E+02
  27.110  0.2295E-84  0.3775E+02
  27.120  0.2295E-84  0.3775E+02
  27.130  0.2295E-84  0.3775E+02
  27.140  0.2295E-84  0.3775E+02
  27.150  0.2295E-84  0.3775E+02
  27.160  0.2295E-84  0.3775E+02
  27.170  0.2295E-84  0.3775E+02
  27.180  0.2295E-84  0.3775E+02
  27.190  0.2295E-84  0.3775E+02
  27.200  0.2295E-84  0.3775E+02
  27.210  0.2295E-84  0.3775E+02
  27.220  0.2295E-84  0.3775E+02
  27.230  0.2295E-84  0.3775E+02
  27.240  0.2295E-84  0.3775E+02
  27.250  0.2295E-84  0.3775E+02
  27.260  0.2295E-84  0.3775E+02
  27.270  0.2295E-84  0.3775E+02
  27.280  0.2295E-84  0.3775E+02
  27.290  0.2295E-84  0.3775E+02
  27.300  0.2295E-84  0.3775E+02
  27.310  0.2295E-84  0.3775E+02
  27.320  0.2295E-84  0.3775E+02
  27.330  0.2295E-84  0.3775E+02
  27.340  0.2295E-84  0.3775E+02
  27.350  0.2295E-84  0.3775E+02
  27.360  0.2295E-84  0.3775E+02
  27.370  0.2295E-84  0.3775E+02
  27.380  0.2295E-84  0.3775E+02
  27.390  0.2295E-84  0.3775E+02
  27.400  0.2295E-84  0.3775E+02
  27.410  0.2295E-84  0.3775E+02
  27.420  0.2295E-84  0.3775E+02
  27.430  0.2295E-84  0.3775E+02
  27.440  0.2295E-84  0.3775E+02
  27.450  0.2295E-84  0.3775E+02
  27.460  0.2295E-84  0.3775E+02
  27.470  0.2295E-84  0.3775E+02
  27.480  0.2295E-84  0.3775E+02
  27.490  0.2295E-84  0.3775E+02
  27.500  0.2295E-84  0.3775E+02
  27.510  0.2295E-84  0.3775E+02
  27.520  0.2295E-84  0.3775E+02
  27.530  0.2295E-84  0.3775E+02
  27.540  0.2295E-84  0.3775E+02
  27.550  0.2295E-84  0.3775E+02
  27.560  0.2295E-84  0.3775E+02
  27.570  0.2295E-84  0.3775E+02
  27.580  0.2295E-84  0.3775E+02
  27.590  0.2295E-84  0.3775E+02
  27.600  0.2295E-84  0.3775E+02
  27.610  0.2295E-84  0.3775E+02
  27.620  0.2295E-84  0.3775E+02
  27.630  0.2295E-84  0.3775E+02
  27.640  0.2295E-84  0.3775E+02
  27.650  0.2295E-84  0.3775E+02
  27.660  0.2295E-84  0.3775E+02
  27.670  0.2295E-84  0.3775E+02
  27.680  0.2295E-84  0.3775E+02
  27.690  0.2295E-84  0.3775E+02
  27.700  0.2295E-84  0.3775E+02
  27.710  0.2295E-84  0.3775E+02
  27.720  0.2295E-84  0.3775E+02
  27.730  0.2295E-84  0.3775E+02
  27.740  0.2295E-84  0.3775E+02
  27.750  0.2295E-84  0.3775E+02
  27.760  0.2295E-84  0.3775E+02
  27.770  0.2295E-84  0.3775E+02
  27.780  0.2295E-84  0.3775E+02
  27.790  0.2295E-84  0.3775E+02
  27.800  0.2295E-84  0.3775E+02
  27.810  0.2295E-84  0.3775E+02
  27.820  0.2295E-84  0.3775E+02
  27.830  0.2295E-84  0.3775E+02
  27.840  0.2295E-84  0.3775E+02
  27.850  0.2295E-84  0.3775E+02
  27.860  0.2295E-84  0.3775E+02
  27.870  0.2295E-84  0.3775E+02
  27.880  0.2295E-84  0.3775E+02
  27.890  0.2295E-84  0.3775E+02
  27.900  0.2295E-84  0.3775E+02
  27.910  0.2295E-84  0.3775E+02
  27.920  0.2295E-84  0.3775E+02
  27.930  0.2295E-84  0.3775E+02
  27.940  0.2295E-84  0.3775E+02
  27.950  0.2295E-84  0.3775E+02
  27.960  0.2295E-84  0.3775E+02
  27.970  0.2295E-84  0.3775E+02
  27.980  0.2295E-84  0.3775E+02
  27.990  0.2295E-84  0.3775E+02
  28.000  0.2295E-84  0.3775E+02
  28.010  0.2295E-84  0.3775E+02
  28.020  0.2295E-84  0.3775E+02
  28.030  0.2295E-84  0.3775E+02
  28.040  0.2295E-84  0.3775E+02
  28.050  0.2295E-84  0.3775E+02
  28.060  0.2295E-84  0.3775E+02
  28.070  0.2295E-84  0.3775E+02
  28.080  0.2295E-84  0.3775E+02
  28.090  0.2295E-84  0.3775E+02
  28.100  0.2295E-84  0.3775E+02
  28.110  0.2295E-84  0.3775E+02
  28.120  0.2295E-84  0.3775E+02
  28.130  0.2295E-84  0.3775E+02
  28.140  0.2295E-84  0.3775E+02
  28.150  0.2295E-84  0.3775E+02
  28.160  0.2295E-84  0.3775E+02
  28.170  0.2295E-84  0.3775E+02
  28.180  0.2295E-84  0.3775E+02
  28.190  0.2295E-84  0.3775E+02
  28.200  0.2295E-84  0.3775E+02
  28.210  0.2295E-84  0.3775E+02
  28.220  0.2295E-84  0.3775E+02
  28.230  0.2295E-84  0.3775E+02
  28.240  0.2295E-84  0.3775E+02
  28.250  0.2295E-84  0.3775E+02
  28.260  0.2295E-84  0.3775E+02
  28.270  0.2295E-84  0.3775E+02
  28.280  0.2295E-84  0.3775E+02
  28.290  0.2295E-84  0.3775E+02
  28.300  0.2295E-84  0.3775E+02
  28.310  0.2295E-84  0.3775E+02
  28.320  0.2295E-84  0.3775E+02
  28.330  0.2295E-84  0.3775E+02
  28.340  0.2295E-84  0.3775E+02
  28.350  0.2295E-84  0.3775E+02
  28.360  0.2295E-84  0.3775E+02
  28.370  0.2295E-84  0.3775E+02
  28.380  0.2295E-84  0.3775E+02
  28.390  0.2295E-84  0.3775E+02
  28.400  0.2295E-84  0.3775E+02
  28.410  0.2295E-84  0.3775E+02
  28.420  0.2295E-84  0.3775E+02
  28.430  0.2295E-84  0.3775E+02
  28.440  0.2295E-84  0.3775E+02
  28.450  0.2295E-84  0.3775E+02
  28.460  0.2295E-84  0.3775E+02
  28.470  0.2295E-84  0.3775E+02
  28.480  0.2295E-84  0.3775E+02
  28.490  0.2295E-84  0.3775E+02
  28.500  0.2295E-84  0.3775E+02
  28.510  0.2295E-84  0.3775E+02
  28.520  0.2295E-84  0.3775E+02
  28.530  0.2295E-84  0.3775E+02
  28.540  0.2295E-84  0.3775E+02
  28.550  0.2295E-84  0.3775E+02
  28.560  0.2295E-84  0.3775E+02
  28.570  0.2295E-84  0.3775E+02
  28.580  0.2295E-84  0.3775E+02
  28.590  0.2295E-84  0.3775E+02
  28.600  0.2295E-84  0.3775E+02
  28.610  0.2295E-84  0.3775E+02
  28.620  0.2295E-84  0.3775E+02
  28.630  0.2295E-84  0.3775E+02
  28.640  0.2295E-84  0.3775E+02
  28.650  0.2295E-84  0.3775E+02
  28.660  0.2295E-84  0.3775E+02
  28.670  0.2295E-84  0.3775E+02
  28.680  0.2295E-84  0.3775E+02
  28.690  0.2295E-84  0.3775E+02
  28.700  0.2295E-84  0.3775E+02
  28.710  0.2295E-84  0.3775E+02
  28.720  0.2295E-84  0.3775E+02
  28.730  0.2295E-84  0.3775E+02
  28.740  0.2295E-84  0.3775E+02
  28.750  0.2295E-84  0.3775E+02
  28.760  0.2295E-84  0.3775E+02
  28.770  0.2295E-84  0.3775E+02
  28.780  0.2295E-84  0.3775E+02
  28.790  0.2295E-84  0.3775E+02
  28.800  0.2295E-84  0.3775E+02
  28.810  0.2295E-84  0.3775E+02
  28.820  0.2295E-84  0.3775E+02
  28.830  0.2295E-84  0.3775E+02
  28.840  0.2295E-84  0.3775E+02
  28.850  0.2295E-84  0.3775E+02
  28.860  0.2295E-84  0.3775E+02
  28.870  0.2295E-84  0.3775E+02
  28.880  0.2295E-84  0.3775E+02
  28.890  0.2295E-84  0.3775E+02
  28.900  0.2295E-84  0.3775E+02
  28.910  0.2295E-84  0.3775E+02
  28.920  0.2295E-84  0.3775E+02
  28.930  0.2295E-84  0.3775E+02
  28.940  0.2295E-84  0.3775E+02
  28.950  0.2295E-84  0.3775E+02
  28.960  0.2295E-84  0.3775E+02
  28.970  0.2295E-84  0.3775E+02
  28.980  0.2295E-84  0.3775E+02
  28.990  0.2295E-84  0.3775E+02
  29.000  0.2295E-84  0.3775E+02
  29.010  0.2295E-84  0.3775E+02
  29.020  0.2295E-84  0.3775E+02
  29.030  0.2295E-84  0.3775E+02
  29.040  0.2295E-84  0.3775E+02
  29.050  0.2295E-84  0.3775E+02
  29.060  0.2295E-84  0.3775E+02
  29.070  0.2295E-84  0.3775E+02
  29.080  0.2295E-84  0.3775E+02
  29.090  0.2295E-84  0.3775E+02
  29.100  0.2295E-84  0.3775E+02
  29.110  0.2295E-84  0.3775E+02
  29.120  0.2295E-84  0.3775E+02
  29.130  0.2295E-84  0.3775E+02
  29.140  0.2295E-84  0.3775E+02
  29.150  0.2295E-84  0.3775E+02
  29.160  0.2295E-84  0.3775E+02
  29.170  0.2295E-84  0.3775E+02
  29.180  0.2295E-84  0.3775E+02
  29.190  0.2295E-84  0.3775E+02
  29.200  0.2295E-84  0.3775E+02
  29.210  0.2295E-84  0.3775E+02
  29.220  0.2295E-84  0.3775E+02
  29.230  0.2295E-84  0.3775E+02
  29.240  0.2295E-84  0.3775E+02
  29.250  0.2295E-84  0.3775E+02
  29.260  0.2295E-84  0.3775E+02
  29.270  0.2295E-84  0.3775E+02
  29.280  0.2295E-84  0.3775E+02
  29.290  0.2295E-84  0.3775E+02
  29.300  0.2295E-84  0.3775E+02
  29.310  0.2295E-84  0.3775E+02
  29.320  0.2295E-84  0.3775E+02
  29.330  0.2295E-84  0.3775E+02
  29.340  0.2295E-84  0.3775E+02
  29.350  0.2295E-84  0.3775E+02
  29.360  0.2295E-84  0.3775E+02
  29.370  0.2295E-84  0.3775E+02
  29.380  0.2295E-84  0.3775E+02
  29.390  0.2295E-84  0.3775E+02
  29.400  0.2295E-84  0.3775E+02
  29.410  0.2295E-84  0.3775E+02
  29.420  0.2295E-84  0.3775E+02
  29.430  0.2295E-84  0.3775E+02
  29.440  0.2295E-84  0.3775E+02
  29.450  0.2295E-84  0.3775E+02
  29.460  0.2295E-84  0.3775E+02
  29.470  0.2295E-84  0.3775E+02
  29.480  0.2295E-84  0.3775E+02
  29.490  0.2295E-84  0.3775E+02
  29.500  0.2295E-84  0.3775E+02
  29.510  0.2295E-84  0.3775E+02
  29.520  0.2295E-84  0.3775E+02
  29.530  0.2295E-84  0.3775E+02
  29.540  0.2295E-84  0.3775E+02
  29.550  0.2295E-84  0.3775E+02
  29.560  0.2295E-84  0.3775E+02
  29.570  0.2295E-84  0.3775E+02
  29.580  0.2295E-84  0.3775E+02
  29.590  0.2295E-84  0.3775E+02
  29.600  0.2295E-84  0.3775E+02
  29.610  0.2295E-84  0.3775E+02
  29.620  0.2295E-84  0.3775E+02
  29.630  0.2295E-84  0.3775E+02
  29.640  0.2295E-84  0.3775E+02
  29.650  0.2295E-84  0.3775E+02
  29.660  0.2295E-84  0.3775E+02
  29.670  0.2295E-84  0.3775E+02
  29.680  0.2295E-84  0.3775E+02
  29.690  0.2295E-84  0.3775E+02
  29.700  0.2295E-84  0.3775E+02
  29.710  0.2295E-84  0.3775E+02
  29.720  0.2295E-84  0.3775E+02
  29.730  0.2295E-84  0.3775E+02
  29.740  0.2295E-84  0.3775E+02
  29.750  0.2295E-84  0.3775E+02
  29.760  0.2295E-84  0.3775E+02
  29.770  0.2295E-84  0.3775E+02
  29.780  0.2295E-84  0.3775E+02
  29.790  0.2295E-84  0.3775E+02
  29.800  0.2295E-84  0.3775E+02
  29.810  0.2295E-84  0.3775E+02
  29.820  0.2295E-84  0.3775E+02
  29.830  0.2295E-84  0.3775E+02
  29.840  0.2295E-84  0.3775E+02
  29.850  0.2295E-84  0.3775E+02
  29.860  0.2295E-84  0.3775E+02
  29.870  0.2295E-84  0.3775E+02
  29.880  0.2295E-84  0.3775E+02
  29.890  0.2295E-84  0.3775E+02
  29.900  0.2295E-84  0.3775E+02
  29.910  0.2295E-84  0.3775E+02
  29.920  0.2295E-84  0.3775E+02
  29.930  0.2295E-84  0.3775E+02
  29.940  0.2295E-84  0.3775E+02
  29.950  0.2295E-84  0.3775E+02
  29.960  0.2295E-84  0.3775E+02
  29.970  0.2295E-84  0.3775E+02
  29.980  0.2295E-84  0.3775E+02
  29.990  0.2295E-84  0.3775E+02
  30.000  0.2295E-84  0.3775E+02
