#  E (eV)   dos(E)     Int dos(E) EFermi =    0.000 eV
  -5.000  0.2851E+00  0.2851E-02
  -4.990  0.2875E+00  0.5726E-02
  -4.980  0.2892E+00  0.8618E-02
  -4.970  0.2902E+00  0.1152E-01
  -4.960  0.2905E+00  0.1443E-01
  -4.950  0.2903E+00  0.1733E-01
  -4.940  0.2897E+00  0.2022E-01
  -4.930  0.2887E+00  0.2311E-01
  -4.920  0.2875E+00  0.2599E-01
  -4.910  0.2863E+00  0.2885E-01
  -4.900  0.2853E+00  0.3170E-01
  -4.890  0.2845E+00  0.3455E-01
  -4.880  0.2841E+00  0.3739E-01
  -4.870  0.2842E+00  0.4023E-01
  -4.860  0.2849E+00  0.4308E-01
  -4.850  0.2862E+00  0.4594E-01
  -4.840  0.2882E+00  0.4882E-01
  -4.830  0.2907E+00  0.5173E-01
  -4.820  0.2939E+00  0.5467E-01
  -4.810  0.2975E+00  0.5765E-01
  -4.800  0.3016E+00  0.6066E-01
  -4.790  0.3059E+00  0.6372E-01
  -4.780  0.3105E+00  0.6683E-01
  -4.770  0.3152E+00  0.6998E-01
  -4.760  0.3199E+00  0.7318E-01
  -4.750  0.3244E+00  0.7642E-01
  -4.740  0.3289E+00  0.7971E-01
  -4.730  0.3331E+00  0.8304E-01
  -4.720  0.3371E+00  0.8641E-01
  -4.710  0.3408E+00  0.8982E-01
  -4.700  0.3442E+00  0.9326E-01
  -4.690  0.3475E+00  0.9674E-01
  -4.680  0.3505E+00  0.1002E+00
  -4.670  0.3534E+00  0.1038E+00
  -4.660  0.3562E+00  0.1073E+00
  -4.650  0.3590E+00  0.1109E+00
  -4.640  0.3617E+00  0.1145E+00
  -4.630  0.3644E+00  0.1182E+00
  -4.620  0.3672E+00  0.1219E+00
  -4.610  0.3699E+00  0.1256E+00
  -4.600  0.3726E+00  0.1293E+00
  -4.590  0.3753E+00  0.1330E+00
  -4.580  0.3779E+00  0.1368E+00
  -4.570  0.3804E+00  0.1406E+00
  -4.560  0.3826E+00  0.1444E+00
  -4.550  0.3846E+00  0.1483E+00
  -4.540  0.3862E+00  0.1522E+00
  -4.530  0.3874E+00  0.1560E+00
  -4.520  0.3881E+00  0.1599E+00
  -4.510  0.3884E+00  0.1638E+00
  -4.500  0.3881E+00  0.1677E+00
  -4.490  0.3873E+00  0.1716E+00
  -4.480  0.3860E+00  0.1754E+00
  -4.470  0.3843E+00  0.1793E+00
  -4.460  0.3821E+00  0.1831E+00
  -4.450  0.3797E+00  0.1869E+00
  -4.440  0.3770E+00  0.1906E+00
  -4.430  0.3743E+00  0.1944E+00
  -4.420  0.3716E+00  0.1981E+00
  -4.410  0.3692E+00  0.2018E+00
  -4.400  0.3671E+00  0.2055E+00
  -4.390  0.3656E+00  0.2091E+00
  -4.380  0.3649E+00  0.2128E+00
  -4.370  0.3650E+00  0.2164E+00
  -4.360  0.3661E+00  0.2201E+00
  -4.350  0.3683E+00  0.2238E+00
  -4.340  0.3717E+00  0.2275E+00
  -4.330  0.3763E+00  0.2312E+00
  -4.320  0.3821E+00  0.2351E+00
  -4.310  0.3891E+00  0.2390E+00
  -4.300  0.3971E+00  0.2429E+00
  -4.290  0.4060E+00  0.2470E+00
  -4.280  0.4157E+00  0.2511E+00
  -4.270  0.4258E+00  0.2554E+00
  -4.260  0.4363E+00  0.2598E+00
  -4.250  0.4467E+00  0.2642E+00
  -4.240  0.4568E+00  0.2688E+00
  -4.230  0.4665E+00  0.2735E+00
  -4.220  0.4753E+00  0.2782E+00
  -4.210  0.4832E+00  0.2830E+00
  -4.200  0.4900E+00  0.2879E+00
  -4.190  0.4955E+00  0.2929E+00
  -4.180  0.4997E+00  0.2979E+00
  -4.170  0.5026E+00  0.3029E+00
  -4.160  0.5042E+00  0.3080E+00
  -4.150  0.5046E+00  0.3130E+00
  -4.140  0.5039E+00  0.3181E+00
  -4.130  0.5022E+00  0.3231E+00
  -4.120  0.4998E+00  0.3281E+00
  -4.110  0.4967E+00  0.3330E+00
  -4.100  0.4933E+00  0.3380E+00
  -4.090  0.4895E+00  0.3429E+00
  -4.080  0.4855E+00  0.3477E+00
  -4.070  0.4815E+00  0.3525E+00
  -4.060  0.4775E+00  0.3573E+00
  -4.050  0.4736E+00  0.3620E+00
  -4.040  0.4698E+00  0.3667E+00
  -4.030  0.4661E+00  0.3714E+00
  -4.020  0.4626E+00  0.3760E+00
  -4.010  0.4593E+00  0.3806E+00
  -4.000  0.4562E+00  0.3852E+00
  -3.990  0.4534E+00  0.3897E+00
  -3.980  0.4509E+00  0.3942E+00
  -3.970  0.4489E+00  0.3987E+00
  -3.960  0.4475E+00  0.4032E+00
  -3.950  0.4467E+00  0.4077E+00
  -3.940  0.4468E+00  0.4121E+00
  -3.930  0.4479E+00  0.4166E+00
  -3.920  0.4500E+00  0.4211E+00
  -3.910  0.4533E+00  0.4256E+00
  -3.900  0.4579E+00  0.4302E+00
  -3.890  0.4636E+00  0.4349E+00
  -3.880  0.4706E+00  0.4396E+00
  -3.870  0.4787E+00  0.4444E+00
  -3.860  0.4877E+00  0.4492E+00
  -3.850  0.4975E+00  0.4542E+00
  -3.840  0.5078E+00  0.4593E+00
  -3.830  0.5184E+00  0.4645E+00
  -3.820  0.5289E+00  0.4698E+00
  -3.810  0.5392E+00  0.4751E+00
  -3.800  0.5489E+00  0.4806E+00
  -3.790  0.5578E+00  0.4862E+00
  -3.780  0.5658E+00  0.4919E+00
  -3.770  0.5726E+00  0.4976E+00
  -3.760  0.5782E+00  0.5034E+00
  -3.750  0.5825E+00  0.5092E+00
  -3.740  0.5856E+00  0.5151E+00
  -3.730  0.5876E+00  0.5209E+00
  -3.720  0.5886E+00  0.5268E+00
  -3.710  0.5889E+00  0.5327E+00
  -3.700  0.5885E+00  0.5386E+00
  -3.690  0.5877E+00  0.5445E+00
  -3.680  0.5869E+00  0.5503E+00
  -3.670  0.5862E+00  0.5562E+00
  -3.660  0.5860E+00  0.5621E+00
  -3.650  0.5863E+00  0.5679E+00
  -3.640  0.5874E+00  0.5738E+00
  -3.630  0.5894E+00  0.5797E+00
  -3.620  0.5924E+00  0.5856E+00
  -3.610  0.5964E+00  0.5916E+00
  -3.600  0.6013E+00  0.5976E+00
  -3.590  0.6072E+00  0.6037E+00
  -3.580  0.6137E+00  0.6098E+00
  -3.570  0.6209E+00  0.6160E+00
  -3.560  0.6284E+00  0.6223E+00
  -3.550  0.6360E+00  0.6287E+00
  -3.540  0.6435E+00  0.6351E+00
  -3.530  0.6506E+00  0.6416E+00
  -3.520  0.6572E+00  0.6482E+00
  -3.510  0.6631E+00  0.6548E+00
  -3.500  0.6680E+00  0.6615E+00
  -3.490  0.6720E+00  0.6682E+00
  -3.480  0.6750E+00  0.6750E+00
  -3.470  0.6769E+00  0.6817E+00
  -3.460  0.6778E+00  0.6885E+00
  -3.450  0.6778E+00  0.6953E+00
  -3.440  0.6772E+00  0.7020E+00
  -3.430  0.6759E+00  0.7088E+00
  -3.420  0.6742E+00  0.7155E+00
  -3.410  0.6723E+00  0.7223E+00
  -3.400  0.6704E+00  0.7290E+00
  -3.390  0.6686E+00  0.7357E+00
  -3.380  0.6670E+00  0.7423E+00
  -3.370  0.6658E+00  0.7490E+00
  -3.360  0.6650E+00  0.7556E+00
  -3.350  0.6648E+00  0.7623E+00
  -3.340  0.6652E+00  0.7689E+00
  -3.330  0.6663E+00  0.7756E+00
  -3.320  0.6681E+00  0.7823E+00
  -3.310  0.6707E+00  0.7890E+00
  -3.300  0.6741E+00  0.7957E+00
  -3.290  0.6784E+00  0.8025E+00
  -3.280  0.6838E+00  0.8094E+00
  -3.270  0.6902E+00  0.8163E+00
  -3.260  0.6979E+00  0.8232E+00
  -3.250  0.7068E+00  0.8303E+00
  -3.240  0.7171E+00  0.8375E+00
  -3.230  0.7288E+00  0.8448E+00
  -3.220  0.7419E+00  0.8522E+00
  -3.210  0.7564E+00  0.8597E+00
  -3.200  0.7722E+00  0.8675E+00
  -3.190  0.7891E+00  0.8754E+00
  -3.180  0.8069E+00  0.8834E+00
  -3.170  0.8252E+00  0.8917E+00
  -3.160  0.8438E+00  0.9001E+00
  -3.150  0.8623E+00  0.9087E+00
  -3.140  0.8801E+00  0.9175E+00
  -3.130  0.8968E+00  0.9265E+00
  -3.120  0.9120E+00  0.9356E+00
  -3.110  0.9252E+00  0.9449E+00
  -3.100  0.9359E+00  0.9542E+00
  -3.090  0.9437E+00  0.9637E+00
  -3.080  0.9485E+00  0.9732E+00
  -3.070  0.9499E+00  0.9827E+00
  -3.060  0.9479E+00  0.9921E+00
  -3.050  0.9425E+00  0.1002E+01
  -3.040  0.9339E+00  0.1011E+01
  -3.030  0.9221E+00  0.1020E+01
  -3.020  0.9077E+00  0.1029E+01
  -3.010  0.8911E+00  0.1038E+01
  -3.000  0.8728E+00  0.1047E+01
  -2.990  0.8535E+00  0.1055E+01
  -2.980  0.8337E+00  0.1064E+01
  -2.970  0.8141E+00  0.1072E+01
  -2.960  0.7954E+00  0.1080E+01
  -2.950  0.7782E+00  0.1088E+01
  -2.940  0.7631E+00  0.1095E+01
  -2.930  0.7504E+00  0.1103E+01
  -2.920  0.7405E+00  0.1110E+01
  -2.910  0.7337E+00  0.1117E+01
  -2.900  0.7300E+00  0.1125E+01
  -2.890  0.7293E+00  0.1132E+01
  -2.880  0.7315E+00  0.1139E+01
  -2.870  0.7363E+00  0.1147E+01
  -2.860  0.7431E+00  0.1154E+01
  -2.850  0.7514E+00  0.1162E+01
  -2.840  0.7607E+00  0.1169E+01
  -2.830  0.7702E+00  0.1177E+01
  -2.820  0.7792E+00  0.1185E+01
  -2.810  0.7870E+00  0.1193E+01
  -2.800  0.7931E+00  0.1201E+01
  -2.790  0.7969E+00  0.1209E+01
  -2.780  0.7979E+00  0.1217E+01
  -2.770  0.7958E+00  0.1224E+01
  -2.760  0.7905E+00  0.1232E+01
  -2.750  0.7819E+00  0.1240E+01
  -2.740  0.7701E+00  0.1248E+01
  -2.730  0.7555E+00  0.1255E+01
  -2.720  0.7383E+00  0.1263E+01
  -2.710  0.7192E+00  0.1270E+01
  -2.700  0.6986E+00  0.1277E+01
  -2.690  0.6771E+00  0.1284E+01
  -2.680  0.6555E+00  0.1290E+01
  -2.670  0.6342E+00  0.1297E+01
  -2.660  0.6139E+00  0.1303E+01
  -2.650  0.5951E+00  0.1309E+01
  -2.640  0.5782E+00  0.1315E+01
  -2.630  0.5635E+00  0.1320E+01
  -2.620  0.5513E+00  0.1326E+01
  -2.610  0.5419E+00  0.1331E+01
  -2.600  0.5351E+00  0.1336E+01
  -2.590  0.5312E+00  0.1342E+01
  -2.580  0.5300E+00  0.1347E+01
  -2.570  0.5313E+00  0.1352E+01
  -2.560  0.5352E+00  0.1358E+01
  -2.550  0.5414E+00  0.1363E+01
  -2.540  0.5497E+00  0.1369E+01
  -2.530  0.5599E+00  0.1374E+01
  -2.520  0.5718E+00  0.1380E+01
  -2.510  0.5853E+00  0.1386E+01
  -2.500  0.6000E+00  0.1392E+01
  -2.490  0.6158E+00  0.1398E+01
  -2.480  0.6324E+00  0.1404E+01
  -2.470  0.6496E+00  0.1411E+01
  -2.460  0.6671E+00  0.1417E+01
  -2.450  0.6845E+00  0.1424E+01
  -2.440  0.7017E+00  0.1431E+01
  -2.430  0.7182E+00  0.1439E+01
  -2.420  0.7338E+00  0.1446E+01
  -2.410  0.7480E+00  0.1453E+01
  -2.400  0.7607E+00  0.1461E+01
  -2.390  0.7715E+00  0.1469E+01
  -2.380  0.7802E+00  0.1476E+01
  -2.370  0.7864E+00  0.1484E+01
  -2.360  0.7901E+00  0.1492E+01
  -2.350  0.7911E+00  0.1500E+01
  -2.340  0.7893E+00  0.1508E+01
  -2.330  0.7848E+00  0.1516E+01
  -2.320  0.7775E+00  0.1524E+01
  -2.310  0.7677E+00  0.1531E+01
  -2.300  0.7555E+00  0.1539E+01
  -2.290  0.7411E+00  0.1546E+01
  -2.280  0.7247E+00  0.1554E+01
  -2.270  0.7068E+00  0.1561E+01
  -2.260  0.6875E+00  0.1568E+01
  -2.250  0.6672E+00  0.1574E+01
  -2.240  0.6461E+00  0.1581E+01
  -2.230  0.6247E+00  0.1587E+01
  -2.220  0.6030E+00  0.1593E+01
  -2.210  0.5814E+00  0.1599E+01
  -2.200  0.5601E+00  0.1604E+01
  -2.190  0.5393E+00  0.1610E+01
  -2.180  0.5190E+00  0.1615E+01
  -2.170  0.4994E+00  0.1620E+01
  -2.160  0.4805E+00  0.1625E+01
  -2.150  0.4625E+00  0.1629E+01
  -2.140  0.4452E+00  0.1634E+01
  -2.130  0.4289E+00  0.1638E+01
  -2.120  0.4133E+00  0.1642E+01
  -2.110  0.3985E+00  0.1646E+01
  -2.100  0.3845E+00  0.1650E+01
  -2.090  0.3713E+00  0.1654E+01
  -2.080  0.3589E+00  0.1657E+01
  -2.070  0.3473E+00  0.1661E+01
  -2.060  0.3366E+00  0.1664E+01
  -2.050  0.3267E+00  0.1667E+01
  -2.040  0.3179E+00  0.1671E+01
  -2.030  0.3101E+00  0.1674E+01
  -2.020  0.3034E+00  0.1677E+01
  -2.010  0.2981E+00  0.1680E+01
  -2.000  0.2941E+00  0.1683E+01
  -1.990  0.2917E+00  0.1686E+01
  -1.980  0.2909E+00  0.1689E+01
  -1.970  0.2918E+00  0.1691E+01
  -1.960  0.2945E+00  0.1694E+01
  -1.950  0.2990E+00  0.1697E+01
  -1.940  0.3053E+00  0.1700E+01
  -1.930  0.3134E+00  0.1704E+01
  -1.920  0.3233E+00  0.1707E+01
  -1.910  0.3348E+00  0.1710E+01
  -1.900  0.3478E+00  0.1714E+01
  -1.890  0.3622E+00  0.1717E+01
  -1.880  0.3777E+00  0.1721E+01
  -1.870  0.3942E+00  0.1725E+01
  -1.860  0.4113E+00  0.1729E+01
  -1.850  0.4287E+00  0.1733E+01
  -1.840  0.4463E+00  0.1738E+01
  -1.830  0.4635E+00  0.1742E+01
  -1.820  0.4801E+00  0.1747E+01
  -1.810  0.4957E+00  0.1752E+01
  -1.800  0.5101E+00  0.1757E+01
  -1.790  0.5229E+00  0.1763E+01
  -1.780  0.5337E+00  0.1768E+01
  -1.770  0.5425E+00  0.1773E+01
  -1.760  0.5489E+00  0.1779E+01
  -1.750  0.5529E+00  0.1784E+01
  -1.740  0.5543E+00  0.1790E+01
  -1.730  0.5532E+00  0.1795E+01
  -1.720  0.5496E+00  0.1801E+01
  -1.710  0.5436E+00  0.1806E+01
  -1.700  0.5354E+00  0.1812E+01
  -1.690  0.5251E+00  0.1817E+01
  -1.680  0.5128E+00  0.1822E+01
  -1.670  0.4989E+00  0.1827E+01
  -1.660  0.4835E+00  0.1832E+01
  -1.650  0.4669E+00  0.1837E+01
  -1.640  0.4492E+00  0.1841E+01
  -1.630  0.4306E+00  0.1845E+01
  -1.620  0.4112E+00  0.1849E+01
  -1.610  0.3913E+00  0.1853E+01
  -1.600  0.3709E+00  0.1857E+01
  -1.590  0.3501E+00  0.1861E+01
  -1.580  0.3291E+00  0.1864E+01
  -1.570  0.3080E+00  0.1867E+01
  -1.560  0.2868E+00  0.1870E+01
  -1.550  0.2657E+00  0.1872E+01
  -1.540  0.2447E+00  0.1875E+01
  -1.530  0.2242E+00  0.1877E+01
  -1.520  0.2040E+00  0.1879E+01
  -1.510  0.1845E+00  0.1881E+01
  -1.500  0.1657E+00  0.1883E+01
  -1.490  0.1477E+00  0.1884E+01
  -1.480  0.1307E+00  0.1886E+01
  -1.470  0.1148E+00  0.1887E+01
  -1.460  0.9997E-01  0.1888E+01
  -1.450  0.8635E-01  0.1889E+01
  -1.440  0.7395E-01  0.1889E+01
  -1.430  0.6279E-01  0.1890E+01
  -1.420  0.5283E-01  0.1890E+01
  -1.410  0.4406E-01  0.1891E+01
  -1.400  0.3641E-01  0.1891E+01
  -1.390  0.2982E-01  0.1892E+01
  -1.380  0.2419E-01  0.1892E+01
  -1.370  0.1946E-01  0.1892E+01
  -1.360  0.1552E-01  0.1892E+01
  -1.350  0.1229E-01  0.1892E+01
  -1.340  0.9685E-02  0.1892E+01
  -1.330  0.7627E-02  0.1892E+01
  -1.320  0.6047E-02  0.1892E+01
  -1.310  0.4889E-02  0.1893E+01
  -1.300  0.4111E-02  0.1893E+01
  -1.290  0.3684E-02  0.1893E+01
  -1.280  0.3596E-02  0.1893E+01
  -1.270  0.3852E-02  0.1893E+01
  -1.260  0.4475E-02  0.1893E+01
  -1.250  0.5507E-02  0.1893E+01
  -1.240  0.7012E-02  0.1893E+01
  -1.230  0.9071E-02  0.1893E+01
  -1.220  0.1179E-01  0.1893E+01
  -1.210  0.1529E-01  0.1893E+01
  -1.200  0.1972E-01  0.1893E+01
  -1.190  0.2525E-01  0.1894E+01
  -1.180  0.3204E-01  0.1894E+01
  -1.170  0.4028E-01  0.1894E+01
  -1.160  0.5017E-01  0.1895E+01
  -1.150  0.6189E-01  0.1895E+01
  -1.140  0.7562E-01  0.1896E+01
  -1.130  0.9150E-01  0.1897E+01
  -1.120  0.1097E+00  0.1898E+01
  -1.110  0.1302E+00  0.1900E+01
  -1.100  0.1531E+00  0.1901E+01
  -1.090  0.1783E+00  0.1903E+01
  -1.080  0.2056E+00  0.1905E+01
  -1.070  0.2350E+00  0.1907E+01
  -1.060  0.2660E+00  0.1910E+01
  -1.050  0.2984E+00  0.1913E+01
  -1.040  0.3316E+00  0.1916E+01
  -1.030  0.3650E+00  0.1920E+01
  -1.020  0.3982E+00  0.1924E+01
  -1.010  0.4305E+00  0.1928E+01
  -1.000  0.4613E+00  0.1933E+01
  -0.990  0.4898E+00  0.1938E+01
  -0.980  0.5156E+00  0.1943E+01
  -0.970  0.5381E+00  0.1948E+01
  -0.960  0.5568E+00  0.1954E+01
  -0.950  0.5714E+00  0.1960E+01
  -0.940  0.5817E+00  0.1965E+01
  -0.930  0.5876E+00  0.1971E+01
  -0.920  0.5890E+00  0.1977E+01
  -0.910  0.5861E+00  0.1983E+01
  -0.900  0.5793E+00  0.1989E+01
  -0.890  0.5688E+00  0.1994E+01
  -0.880  0.5552E+00  0.2000E+01
  -0.870  0.5390E+00  0.2005E+01
  -0.860  0.5207E+00  0.2011E+01
  -0.850  0.5010E+00  0.2016E+01
  -0.840  0.4803E+00  0.2020E+01
  -0.830  0.4592E+00  0.2025E+01
  -0.820  0.4383E+00  0.2029E+01
  -0.810  0.4180E+00  0.2034E+01
  -0.800  0.3986E+00  0.2038E+01
  -0.790  0.3806E+00  0.2041E+01
  -0.780  0.3642E+00  0.2045E+01
  -0.770  0.3496E+00  0.2048E+01
  -0.760  0.3370E+00  0.2052E+01
  -0.750  0.3265E+00  0.2055E+01
  -0.740  0.3182E+00  0.2058E+01
  -0.730  0.3123E+00  0.2061E+01
  -0.720  0.3089E+00  0.2065E+01
  -0.710  0.3079E+00  0.2068E+01
  -0.700  0.3095E+00  0.2071E+01
  -0.690  0.3137E+00  0.2074E+01
  -0.680  0.3207E+00  0.2077E+01
  -0.670  0.3304E+00  0.2080E+01
  -0.660  0.3431E+00  0.2084E+01
  -0.650  0.3587E+00  0.2087E+01
  -0.640  0.3773E+00  0.2091E+01
  -0.630  0.3989E+00  0.2095E+01
  -0.620  0.4237E+00  0.2099E+01
  -0.610  0.4516E+00  0.2104E+01
  -0.600  0.4825E+00  0.2109E+01
  -0.590  0.5165E+00  0.2114E+01
  -0.580  0.5535E+00  0.2119E+01
  -0.570  0.5934E+00  0.2125E+01
  -0.560  0.6360E+00  0.2132E+01
  -0.550  0.6811E+00  0.2138E+01
  -0.540  0.7284E+00  0.2146E+01
  -0.530  0.7778E+00  0.2154E+01
  -0.520  0.8288E+00  0.2162E+01
  -0.510  0.8811E+00  0.2171E+01
  -0.500  0.9343E+00  0.2180E+01
  -0.490  0.9878E+00  0.2190E+01
  -0.480  0.1041E+01  0.2200E+01
  -0.470  0.1094E+01  0.2211E+01
  -0.460  0.1145E+01  0.2223E+01
  -0.450  0.1195E+01  0.2235E+01
  -0.440  0.1243E+01  0.2247E+01
  -0.430  0.1288E+01  0.2260E+01
  -0.420  0.1329E+01  0.2273E+01
  -0.410  0.1367E+01  0.2287E+01
  -0.400  0.1401E+01  0.2301E+01
  -0.390  0.1431E+01  0.2315E+01
  -0.380  0.1456E+01  0.2330E+01
  -0.370  0.1476E+01  0.2345E+01
  -0.360  0.1492E+01  0.2359E+01
  -0.350  0.1503E+01  0.2374E+01
  -0.340  0.1510E+01  0.2390E+01
  -0.330  0.1511E+01  0.2405E+01
  -0.320  0.1508E+01  0.2420E+01
  -0.310  0.1501E+01  0.2435E+01
  -0.300  0.1488E+01  0.2450E+01
  -0.290  0.1472E+01  0.2464E+01
  -0.280  0.1451E+01  0.2479E+01
  -0.270  0.1426E+01  0.2493E+01
  -0.260  0.1397E+01  0.2507E+01
  -0.250  0.1364E+01  0.2521E+01
  -0.240  0.1328E+01  0.2534E+01
  -0.230  0.1289E+01  0.2547E+01
  -0.220  0.1246E+01  0.2559E+01
  -0.210  0.1202E+01  0.2571E+01
  -0.200  0.1156E+01  0.2583E+01
  -0.190  0.1109E+01  0.2594E+01
  -0.180  0.1061E+01  0.2605E+01
  -0.170  0.1014E+01  0.2615E+01
  -0.160  0.9683E+00  0.2625E+01
  -0.150  0.9248E+00  0.2634E+01
  -0.140  0.8842E+00  0.2643E+01
  -0.130  0.8471E+00  0.2651E+01
  -0.120  0.8142E+00  0.2659E+01
  -0.110  0.7860E+00  0.2667E+01
  -0.100  0.7626E+00  0.2675E+01
  -0.090  0.7443E+00  0.2682E+01
  -0.080  0.7310E+00  0.2689E+01
  -0.070  0.7224E+00  0.2697E+01
  -0.060  0.7180E+00  0.2704E+01
  -0.050  0.7174E+00  0.2711E+01
  -0.040  0.7198E+00  0.2718E+01
  -0.030  0.7244E+00  0.2725E+01
  -0.020  0.7303E+00  0.2733E+01
  -0.010  0.7366E+00  0.2740E+01
   0.000  0.7425E+00  0.2748E+01
   0.010  0.7471E+00  0.2755E+01
   0.020  0.7497E+00  0.2763E+01
   0.030  0.7498E+00  0.2770E+01
   0.040  0.7467E+00  0.2777E+01
   0.050  0.7403E+00  0.2785E+01
   0.060  0.7305E+00  0.2792E+01
   0.070  0.7171E+00  0.2799E+01
   0.080  0.7005E+00  0.2806E+01
   0.090  0.6809E+00  0.2813E+01
   0.100  0.6588E+00  0.2820E+01
   0.110  0.6348E+00  0.2826E+01
   0.120  0.6095E+00  0.2832E+01
   0.130  0.5836E+00  0.2838E+01
   0.140  0.5577E+00  0.2844E+01
   0.150  0.5326E+00  0.2849E+01
   0.160  0.5087E+00  0.2854E+01
   0.170  0.4868E+00  0.2859E+01
   0.180  0.4672E+00  0.2864E+01
   0.190  0.4504E+00  0.2868E+01
   0.200  0.4367E+00  0.2872E+01
   0.210  0.4264E+00  0.2877E+01
   0.220  0.4196E+00  0.2881E+01
   0.230  0.4164E+00  0.2885E+01
   0.240  0.4168E+00  0.2889E+01
   0.250  0.4207E+00  0.2893E+01
   0.260  0.4281E+00  0.2898E+01
   0.270  0.4389E+00  0.2902E+01
   0.280  0.4528E+00  0.2907E+01
   0.290  0.4696E+00  0.2911E+01
   0.300  0.4890E+00  0.2916E+01
   0.310  0.5107E+00  0.2921E+01
   0.320  0.5343E+00  0.2927E+01
   0.330  0.5593E+00  0.2932E+01
   0.340  0.5852E+00  0.2938E+01
   0.350  0.6115E+00  0.2944E+01
   0.360  0.6375E+00  0.2951E+01
   0.370  0.6626E+00  0.2957E+01
   0.380  0.6861E+00  0.2964E+01
   0.390  0.7073E+00  0.2971E+01
   0.400  0.7255E+00  0.2978E+01
   0.410  0.7402E+00  0.2986E+01
   0.420  0.7509E+00  0.2993E+01
   0.430  0.7571E+00  0.3001E+01
   0.440  0.7585E+00  0.3009E+01
   0.450  0.7550E+00  0.3016E+01
   0.460  0.7466E+00  0.3024E+01
   0.470  0.7334E+00  0.3031E+01
   0.480  0.7157E+00  0.3038E+01
   0.490  0.6940E+00  0.3045E+01
   0.500  0.6688E+00  0.3052E+01
   0.510  0.6408E+00  0.3058E+01
   0.520  0.6106E+00  0.3064E+01
   0.530  0.5791E+00  0.3070E+01
   0.540  0.5468E+00  0.3075E+01
   0.550  0.5145E+00  0.3081E+01
   0.560  0.4830E+00  0.3085E+01
   0.570  0.4527E+00  0.3090E+01
   0.580  0.4243E+00  0.3094E+01
   0.590  0.3982E+00  0.3098E+01
   0.600  0.3747E+00  0.3102E+01
   0.610  0.3542E+00  0.3105E+01
   0.620  0.3368E+00  0.3109E+01
   0.630  0.3227E+00  0.3112E+01
   0.640  0.3120E+00  0.3115E+01
   0.650  0.3048E+00  0.3118E+01
   0.660  0.3010E+00  0.3121E+01
   0.670  0.3007E+00  0.3124E+01
   0.680  0.3038E+00  0.3127E+01
   0.690  0.3101E+00  0.3130E+01
   0.700  0.3195E+00  0.3134E+01
   0.710  0.3318E+00  0.3137E+01
   0.720  0.3468E+00  0.3140E+01
   0.730  0.3642E+00  0.3144E+01
   0.740  0.3836E+00  0.3148E+01
   0.750  0.4045E+00  0.3152E+01
   0.760  0.4265E+00  0.3156E+01
   0.770  0.4491E+00  0.3161E+01
   0.780  0.4715E+00  0.3165E+01
   0.790  0.4933E+00  0.3170E+01
   0.800  0.5136E+00  0.3175E+01
   0.810  0.5320E+00  0.3181E+01
   0.820  0.5478E+00  0.3186E+01
   0.830  0.5605E+00  0.3192E+01
   0.840  0.5695E+00  0.3197E+01
   0.850  0.5746E+00  0.3203E+01
   0.860  0.5754E+00  0.3209E+01
   0.870  0.5718E+00  0.3215E+01
   0.880  0.5639E+00  0.3220E+01
   0.890  0.5517E+00  0.3226E+01
   0.900  0.5357E+00  0.3231E+01
   0.910  0.5160E+00  0.3236E+01
   0.920  0.4934E+00  0.3241E+01
   0.930  0.4683E+00  0.3246E+01
   0.940  0.4415E+00  0.3250E+01
   0.950  0.4136E+00  0.3255E+01
   0.960  0.3853E+00  0.3258E+01
   0.970  0.3572E+00  0.3262E+01
   0.980  0.3301E+00  0.3265E+01
   0.990  0.3044E+00  0.3268E+01
   1.000  0.2807E+00  0.3271E+01
   1.010  0.2592E+00  0.3274E+01
   1.020  0.2402E+00  0.3276E+01
   1.030  0.2239E+00  0.3278E+01
   1.040  0.2104E+00  0.3280E+01
   1.050  0.1996E+00  0.3282E+01
   1.060  0.1914E+00  0.3284E+01
   1.070  0.1855E+00  0.3286E+01
   1.080  0.1819E+00  0.3288E+01
   1.090  0.1803E+00  0.3290E+01
   1.100  0.1804E+00  0.3292E+01
   1.110  0.1820E+00  0.3293E+01
   1.120  0.1850E+00  0.3295E+01
   1.130  0.1891E+00  0.3297E+01
   1.140  0.1944E+00  0.3299E+01
   1.150  0.2007E+00  0.3301E+01
   1.160  0.2081E+00  0.3303E+01
   1.170  0.2167E+00  0.3305E+01
   1.180  0.2265E+00  0.3308E+01
   1.190  0.2377E+00  0.3310E+01
   1.200  0.2504E+00  0.3313E+01
   1.210  0.2647E+00  0.3315E+01
   1.220  0.2807E+00  0.3318E+01
   1.230  0.2984E+00  0.3321E+01
   1.240  0.3177E+00  0.3324E+01
   1.250  0.3385E+00  0.3328E+01
   1.260  0.3605E+00  0.3331E+01
   1.270  0.3834E+00  0.3335E+01
   1.280  0.4068E+00  0.3339E+01
   1.290  0.4301E+00  0.3343E+01
   1.300  0.4528E+00  0.3348E+01
   1.310  0.4742E+00  0.3353E+01
   1.320  0.4938E+00  0.3358E+01
   1.330  0.5109E+00  0.3363E+01
   1.340  0.5249E+00  0.3368E+01
   1.350  0.5353E+00  0.3373E+01
   1.360  0.5417E+00  0.3379E+01
   1.370  0.5439E+00  0.3384E+01
   1.380  0.5416E+00  0.3390E+01
   1.390  0.5349E+00  0.3395E+01
   1.400  0.5239E+00  0.3400E+01
   1.410  0.5089E+00  0.3405E+01
   1.420  0.4902E+00  0.3410E+01
   1.430  0.4684E+00  0.3415E+01
   1.440  0.4439E+00  0.3419E+01
   1.450  0.4175E+00  0.3423E+01
   1.460  0.3898E+00  0.3427E+01
   1.470  0.3613E+00  0.3431E+01
   1.480  0.3327E+00  0.3434E+01
   1.490  0.3046E+00  0.3437E+01
   1.500  0.2773E+00  0.3440E+01
   1.510  0.2514E+00  0.3443E+01
   1.520  0.2272E+00  0.3445E+01
   1.530  0.2048E+00  0.3447E+01
   1.540  0.1846E+00  0.3449E+01
   1.550  0.1665E+00  0.3450E+01
   1.560  0.1506E+00  0.3452E+01
   1.570  0.1371E+00  0.3453E+01
   1.580  0.1258E+00  0.3455E+01
   1.590  0.1167E+00  0.3456E+01
   1.600  0.1097E+00  0.3457E+01
   1.610  0.1049E+00  0.3458E+01
   1.620  0.1022E+00  0.3459E+01
   1.630  0.1014E+00  0.3460E+01
   1.640  0.1027E+00  0.3461E+01
   1.650  0.1058E+00  0.3462E+01
   1.660  0.1108E+00  0.3463E+01
   1.670  0.1177E+00  0.3464E+01
   1.680  0.1263E+00  0.3466E+01
   1.690  0.1366E+00  0.3467E+01
   1.700  0.1486E+00  0.3468E+01
   1.710  0.1621E+00  0.3470E+01
   1.720  0.1769E+00  0.3472E+01
   1.730  0.1931E+00  0.3474E+01
   1.740  0.2104E+00  0.3476E+01
   1.750  0.2287E+00  0.3478E+01
   1.760  0.2478E+00  0.3481E+01
   1.770  0.2675E+00  0.3483E+01
   1.780  0.2877E+00  0.3486E+01
   1.790  0.3080E+00  0.3489E+01
   1.800  0.3284E+00  0.3493E+01
   1.810  0.3486E+00  0.3496E+01
   1.820  0.3684E+00  0.3500E+01
   1.830  0.3877E+00  0.3504E+01
   1.840  0.4062E+00  0.3508E+01
   1.850  0.4238E+00  0.3512E+01
   1.860  0.4404E+00  0.3516E+01
   1.870  0.4559E+00  0.3521E+01
   1.880  0.4702E+00  0.3526E+01
   1.890  0.4833E+00  0.3530E+01
   1.900  0.4952E+00  0.3535E+01
   1.910  0.5060E+00  0.3540E+01
   1.920  0.5158E+00  0.3546E+01
   1.930  0.5247E+00  0.3551E+01
   1.940  0.5329E+00  0.3556E+01
   1.950  0.5406E+00  0.3562E+01
   1.960  0.5479E+00  0.3567E+01
   1.970  0.5552E+00  0.3573E+01
   1.980  0.5626E+00  0.3578E+01
   1.990  0.5702E+00  0.3584E+01
   2.000  0.5784E+00  0.3590E+01
   2.010  0.5871E+00  0.3596E+01
   2.020  0.5965E+00  0.3601E+01
   2.030  0.6066E+00  0.3608E+01
   2.040  0.6174E+00  0.3614E+01
   2.050  0.6290E+00  0.3620E+01
   2.060  0.6412E+00  0.3626E+01
   2.070  0.6540E+00  0.3633E+01
   2.080  0.6673E+00  0.3640E+01
   2.090  0.6810E+00  0.3646E+01
   2.100  0.6951E+00  0.3653E+01
   2.110  0.7095E+00  0.3661E+01
   2.120  0.7242E+00  0.3668E+01
   2.130  0.7392E+00  0.3675E+01
   2.140  0.7547E+00  0.3683E+01
   2.150  0.7707E+00  0.3690E+01
   2.160  0.7875E+00  0.3698E+01
   2.170  0.8053E+00  0.3706E+01
   2.180  0.8241E+00  0.3715E+01
   2.190  0.8442E+00  0.3723E+01
   2.200  0.8659E+00  0.3732E+01
   2.210  0.8890E+00  0.3741E+01
   2.220  0.9138E+00  0.3750E+01
   2.230  0.9403E+00  0.3759E+01
   2.240  0.9682E+00  0.3769E+01
   2.250  0.9975E+00  0.3779E+01
   2.260  0.1028E+01  0.3789E+01
   2.270  0.1059E+01  0.3800E+01
   2.280  0.1090E+01  0.3811E+01
   2.290  0.1122E+01  0.3822E+01
   2.300  0.1152E+01  0.3833E+01
   2.310  0.1182E+01  0.3845E+01
   2.320  0.1210E+01  0.3857E+01
   2.330  0.1236E+01  0.3870E+01
   2.340  0.1259E+01  0.3882E+01
   2.350  0.1280E+01  0.3895E+01
   2.360  0.1297E+01  0.3908E+01
   2.370  0.1311E+01  0.3921E+01
   2.380  0.1321E+01  0.3934E+01
   2.390  0.1327E+01  0.3947E+01
   2.400  0.1329E+01  0.3961E+01
   2.410  0.1327E+01  0.3974E+01
   2.420  0.1320E+01  0.3987E+01
   2.430  0.1310E+01  0.4000E+01
   2.440  0.1295E+01  0.4013E+01
   2.450  0.1277E+01  0.4026E+01
   2.460  0.1256E+01  0.4039E+01
   2.470  0.1231E+01  0.4051E+01
   2.480  0.1204E+01  0.4063E+01
   2.490  0.1175E+01  0.4075E+01
   2.500  0.1144E+01  0.4086E+01
   2.510  0.1111E+01  0.4097E+01
   2.520  0.1079E+01  0.4108E+01
   2.530  0.1046E+01  0.4119E+01
   2.540  0.1013E+01  0.4129E+01
   2.550  0.9823E+00  0.4138E+01
   2.560  0.9527E+00  0.4148E+01
   2.570  0.9252E+00  0.4157E+01
   2.580  0.9001E+00  0.4166E+01
   2.590  0.8778E+00  0.4175E+01
   2.600  0.8586E+00  0.4184E+01
   2.610  0.8425E+00  0.4192E+01
   2.620  0.8299E+00  0.4200E+01
   2.630  0.8207E+00  0.4209E+01
   2.640  0.8149E+00  0.4217E+01
   2.650  0.8125E+00  0.4225E+01
   2.660  0.8135E+00  0.4233E+01
   2.670  0.8177E+00  0.4241E+01
   2.680  0.8249E+00  0.4249E+01
   2.690  0.8349E+00  0.4258E+01
   2.700  0.8476E+00  0.4266E+01
   2.710  0.8626E+00  0.4275E+01
   2.720  0.8798E+00  0.4284E+01
   2.730  0.8987E+00  0.4293E+01
   2.740  0.9190E+00  0.4302E+01
   2.750  0.9404E+00  0.4311E+01
   2.760  0.9626E+00  0.4321E+01
   2.770  0.9849E+00  0.4331E+01
   2.780  0.1007E+01  0.4341E+01
   2.790  0.1029E+01  0.4351E+01
   2.800  0.1049E+01  0.4362E+01
   2.810  0.1069E+01  0.4372E+01
   2.820  0.1086E+01  0.4383E+01
   2.830  0.1101E+01  0.4394E+01
   2.840  0.1114E+01  0.4405E+01
   2.850  0.1124E+01  0.4416E+01
   2.860  0.1131E+01  0.4428E+01
   2.870  0.1135E+01  0.4439E+01
   2.880  0.1136E+01  0.4450E+01
   2.890  0.1135E+01  0.4462E+01
   2.900  0.1131E+01  0.4473E+01
   2.910  0.1125E+01  0.4484E+01
   2.920  0.1117E+01  0.4496E+01
   2.930  0.1109E+01  0.4507E+01
   2.940  0.1099E+01  0.4518E+01
   2.950  0.1089E+01  0.4529E+01
   2.960  0.1079E+01  0.4539E+01
   2.970  0.1070E+01  0.4550E+01
   2.980  0.1062E+01  0.4561E+01
   2.990  0.1056E+01  0.4571E+01
   3.000  0.1051E+01  0.4582E+01
   3.010  0.1049E+01  0.4592E+01
   3.020  0.1048E+01  0.4603E+01
   3.030  0.1050E+01  0.4613E+01
   3.040  0.1054E+01  0.4624E+01
   3.050  0.1059E+01  0.4634E+01
   3.060  0.1067E+01  0.4645E+01
   3.070  0.1076E+01  0.4656E+01
   3.080  0.1086E+01  0.4667E+01
   3.090  0.1096E+01  0.4678E+01
   3.100  0.1108E+01  0.4689E+01
   3.110  0.1119E+01  0.4700E+01
   3.120  0.1130E+01  0.4711E+01
   3.130  0.1140E+01  0.4723E+01
   3.140  0.1149E+01  0.4734E+01
   3.150  0.1157E+01  0.4746E+01
   3.160  0.1164E+01  0.4757E+01
   3.170  0.1168E+01  0.4769E+01
   3.180  0.1171E+01  0.4781E+01
   3.190  0.1171E+01  0.4792E+01
   3.200  0.1170E+01  0.4804E+01
   3.210  0.1166E+01  0.4816E+01
   3.220  0.1161E+01  0.4827E+01
   3.230  0.1154E+01  0.4839E+01
   3.240  0.1146E+01  0.4850E+01
   3.250  0.1136E+01  0.4862E+01
   3.260  0.1126E+01  0.4873E+01
   3.270  0.1115E+01  0.4884E+01
   3.280  0.1104E+01  0.4895E+01
   3.290  0.1094E+01  0.4906E+01
   3.300  0.1086E+01  0.4917E+01
   3.310  0.1078E+01  0.4928E+01
   3.320  0.1073E+01  0.4938E+01
   3.330  0.1070E+01  0.4949E+01
   3.340  0.1071E+01  0.4960E+01
   3.350  0.1074E+01  0.4971E+01
   3.360  0.1081E+01  0.4981E+01
   3.370  0.1092E+01  0.4992E+01
   3.380  0.1106E+01  0.5003E+01
   3.390  0.1125E+01  0.5015E+01
   3.400  0.1147E+01  0.5026E+01
   3.410  0.1172E+01  0.5038E+01
   3.420  0.1201E+01  0.5050E+01
   3.430  0.1233E+01  0.5062E+01
   3.440  0.1267E+01  0.5075E+01
   3.450  0.1303E+01  0.5088E+01
   3.460  0.1340E+01  0.5101E+01
   3.470  0.1377E+01  0.5115E+01
   3.480  0.1415E+01  0.5129E+01
   3.490  0.1452E+01  0.5144E+01
   3.500  0.1487E+01  0.5159E+01
   3.510  0.1520E+01  0.5174E+01
   3.520  0.1551E+01  0.5189E+01
   3.530  0.1579E+01  0.5205E+01
   3.540  0.1603E+01  0.5221E+01
   3.550  0.1623E+01  0.5237E+01
   3.560  0.1639E+01  0.5254E+01
   3.570  0.1650E+01  0.5270E+01
   3.580  0.1657E+01  0.5287E+01
   3.590  0.1658E+01  0.5303E+01
   3.600  0.1655E+01  0.5320E+01
   3.610  0.1647E+01  0.5336E+01
   3.620  0.1634E+01  0.5353E+01
   3.630  0.1617E+01  0.5369E+01
   3.640  0.1596E+01  0.5385E+01
   3.650  0.1571E+01  0.5401E+01
   3.660  0.1542E+01  0.5416E+01
   3.670  0.1512E+01  0.5431E+01
   3.680  0.1479E+01  0.5446E+01
   3.690  0.1445E+01  0.5460E+01
   3.700  0.1411E+01  0.5474E+01
   3.710  0.1377E+01  0.5488E+01
   3.720  0.1344E+01  0.5502E+01
   3.730  0.1313E+01  0.5515E+01
   3.740  0.1286E+01  0.5528E+01
   3.750  0.1261E+01  0.5540E+01
   3.760  0.1242E+01  0.5553E+01
   3.770  0.1227E+01  0.5565E+01
   3.780  0.1218E+01  0.5577E+01
   3.790  0.1214E+01  0.5589E+01
   3.800  0.1216E+01  0.5601E+01
   3.810  0.1225E+01  0.5614E+01
   3.820  0.1239E+01  0.5626E+01
   3.830  0.1258E+01  0.5639E+01
   3.840  0.1282E+01  0.5651E+01
   3.850  0.1310E+01  0.5665E+01
   3.860  0.1342E+01  0.5678E+01
   3.870  0.1375E+01  0.5692E+01
   3.880  0.1410E+01  0.5706E+01
   3.890  0.1444E+01  0.5720E+01
   3.900  0.1478E+01  0.5735E+01
   3.910  0.1509E+01  0.5750E+01
   3.920  0.1536E+01  0.5765E+01
   3.930  0.1560E+01  0.5781E+01
   3.940  0.1578E+01  0.5797E+01
   3.950  0.1592E+01  0.5813E+01
   3.960  0.1599E+01  0.5829E+01
   3.970  0.1601E+01  0.5845E+01
   3.980  0.1597E+01  0.5861E+01
   3.990  0.1587E+01  0.5877E+01
   4.000  0.1572E+01  0.5892E+01
   4.010  0.1552E+01  0.5908E+01
   4.020  0.1529E+01  0.5923E+01
   4.030  0.1502E+01  0.5938E+01
   4.040  0.1473E+01  0.5953E+01
   4.050  0.1443E+01  0.5967E+01
   4.060  0.1412E+01  0.5981E+01
   4.070  0.1381E+01  0.5995E+01
   4.080  0.1351E+01  0.6009E+01
   4.090  0.1322E+01  0.6022E+01
   4.100  0.1296E+01  0.6035E+01
   4.110  0.1273E+01  0.6048E+01
   4.120  0.1252E+01  0.6060E+01
   4.130  0.1235E+01  0.6073E+01
   4.140  0.1222E+01  0.6085E+01
   4.150  0.1212E+01  0.6097E+01
   4.160  0.1205E+01  0.6109E+01
   4.170  0.1203E+01  0.6121E+01
   4.180  0.1203E+01  0.6133E+01
   4.190  0.1206E+01  0.6145E+01
   4.200  0.1212E+01  0.6157E+01
   4.210  0.1220E+01  0.6169E+01
   4.220  0.1230E+01  0.6182E+01
   4.230  0.1242E+01  0.6194E+01
   4.240  0.1255E+01  0.6207E+01
   4.250  0.1270E+01  0.6219E+01
   4.260  0.1285E+01  0.6232E+01
   4.270  0.1300E+01  0.6245E+01
   4.280  0.1316E+01  0.6258E+01
   4.290  0.1332E+01  0.6272E+01
   4.300  0.1348E+01  0.6285E+01
   4.310  0.1363E+01  0.6299E+01
   4.320  0.1378E+01  0.6313E+01
   4.330  0.1392E+01  0.6326E+01
   4.340  0.1404E+01  0.6341E+01
   4.350  0.1415E+01  0.6355E+01
   4.360  0.1425E+01  0.6369E+01
   4.370  0.1432E+01  0.6383E+01
   4.380  0.1437E+01  0.6398E+01
   4.390  0.1440E+01  0.6412E+01
   4.400  0.1439E+01  0.6426E+01
   4.410  0.1437E+01  0.6441E+01
   4.420  0.1431E+01  0.6455E+01
   4.430  0.1422E+01  0.6469E+01
   4.440  0.1411E+01  0.6483E+01
   4.450  0.1397E+01  0.6497E+01
   4.460  0.1381E+01  0.6511E+01
   4.470  0.1363E+01  0.6525E+01
   4.480  0.1344E+01  0.6538E+01
   4.490  0.1324E+01  0.6552E+01
   4.500  0.1303E+01  0.6565E+01
   4.510  0.1281E+01  0.6577E+01
   4.520  0.1260E+01  0.6590E+01
   4.530  0.1240E+01  0.6602E+01
   4.540  0.1220E+01  0.6615E+01
   4.550  0.1201E+01  0.6627E+01
   4.560  0.1183E+01  0.6638E+01
   4.570  0.1166E+01  0.6650E+01
   4.580  0.1150E+01  0.6662E+01
   4.590  0.1135E+01  0.6673E+01
   4.600  0.1121E+01  0.6684E+01
   4.610  0.1108E+01  0.6695E+01
   4.620  0.1095E+01  0.6706E+01
   4.630  0.1083E+01  0.6717E+01
   4.640  0.1071E+01  0.6728E+01
   4.650  0.1061E+01  0.6738E+01
   4.660  0.1051E+01  0.6749E+01
   4.670  0.1042E+01  0.6759E+01
   4.680  0.1035E+01  0.6770E+01
   4.690  0.1029E+01  0.6780E+01
   4.700  0.1026E+01  0.6790E+01
   4.710  0.1026E+01  0.6800E+01
   4.720  0.1029E+01  0.6811E+01
   4.730  0.1036E+01  0.6821E+01
   4.740  0.1047E+01  0.6832E+01
   4.750  0.1062E+01  0.6842E+01
   4.760  0.1081E+01  0.6853E+01
   4.770  0.1104E+01  0.6864E+01
   4.780  0.1131E+01  0.6875E+01
   4.790  0.1160E+01  0.6887E+01
   4.800  0.1192E+01  0.6899E+01
   4.810  0.1226E+01  0.6911E+01
   4.820  0.1260E+01  0.6924E+01
   4.830  0.1294E+01  0.6937E+01
   4.840  0.1327E+01  0.6950E+01
   4.850  0.1357E+01  0.6963E+01
   4.860  0.1384E+01  0.6977E+01
   4.870  0.1407E+01  0.6991E+01
   4.880  0.1425E+01  0.7006E+01
   4.890  0.1437E+01  0.7020E+01
   4.900  0.1443E+01  0.7034E+01
   4.910  0.1444E+01  0.7049E+01
   4.920  0.1438E+01  0.7063E+01
   4.930  0.1426E+01  0.7077E+01
   4.940  0.1409E+01  0.7092E+01
   4.950  0.1386E+01  0.7105E+01
   4.960  0.1359E+01  0.7119E+01
   4.970  0.1328E+01  0.7132E+01
   4.980  0.1293E+01  0.7145E+01
   4.990  0.1256E+01  0.7158E+01
   5.000  0.1217E+01  0.7170E+01
   5.010  0.1178E+01  0.7182E+01
   5.020  0.1138E+01  0.7193E+01
   5.030  0.1099E+01  0.7204E+01
   5.040  0.1062E+01  0.7215E+01
   5.050  0.1026E+01  0.7225E+01
   5.060  0.9934E+00  0.7235E+01
   5.070  0.9632E+00  0.7245E+01
   5.080  0.9362E+00  0.7254E+01
   5.090  0.9126E+00  0.7263E+01
   5.100  0.8925E+00  0.7272E+01
   5.110  0.8760E+00  0.7281E+01
   5.120  0.8629E+00  0.7289E+01
   5.130  0.8534E+00  0.7298E+01
   5.140  0.8471E+00  0.7306E+01
   5.150  0.8440E+00  0.7315E+01
   5.160  0.8439E+00  0.7323E+01
   5.170  0.8464E+00  0.7332E+01
   5.180  0.8514E+00  0.7340E+01
   5.190  0.8585E+00  0.7349E+01
   5.200  0.8674E+00  0.7357E+01
   5.210  0.8777E+00  0.7366E+01
   5.220  0.8890E+00  0.7375E+01
   5.230  0.9010E+00  0.7384E+01
   5.240  0.9130E+00  0.7393E+01
   5.250  0.9246E+00  0.7403E+01
   5.260  0.9353E+00  0.7412E+01
   5.270  0.9445E+00  0.7421E+01
   5.280  0.9518E+00  0.7431E+01
   5.290  0.9566E+00  0.7440E+01
   5.300  0.9587E+00  0.7450E+01
   5.310  0.9575E+00  0.7460E+01
   5.320  0.9529E+00  0.7469E+01
   5.330  0.9447E+00  0.7479E+01
   5.340  0.9330E+00  0.7488E+01
   5.350  0.9177E+00  0.7497E+01
   5.360  0.8992E+00  0.7506E+01
   5.370  0.8778E+00  0.7515E+01
   5.380  0.8539E+00  0.7523E+01
   5.390  0.8280E+00  0.7532E+01
   5.400  0.8006E+00  0.7540E+01
   5.410  0.7724E+00  0.7547E+01
   5.420  0.7440E+00  0.7555E+01
   5.430  0.7158E+00  0.7562E+01
   5.440  0.6886E+00  0.7569E+01
   5.450  0.6626E+00  0.7576E+01
   5.460  0.6383E+00  0.7582E+01
   5.470  0.6160E+00  0.7588E+01
   5.480  0.5959E+00  0.7594E+01
   5.490  0.5781E+00  0.7600E+01
   5.500  0.5627E+00  0.7605E+01
   5.510  0.5497E+00  0.7611E+01
   5.520  0.5388E+00  0.7616E+01
   5.530  0.5300E+00  0.7622E+01
   5.540  0.5230E+00  0.7627E+01
   5.550  0.5177E+00  0.7632E+01
   5.560  0.5138E+00  0.7637E+01
   5.570  0.5110E+00  0.7642E+01
   5.580  0.5091E+00  0.7647E+01
   5.590  0.5079E+00  0.7652E+01
   5.600  0.5072E+00  0.7657E+01
   5.610  0.5067E+00  0.7663E+01
   5.620  0.5063E+00  0.7668E+01
   5.630  0.5058E+00  0.7673E+01
   5.640  0.5050E+00  0.7678E+01
   5.650  0.5039E+00  0.7683E+01
   5.660  0.5024E+00  0.7688E+01
   5.670  0.5002E+00  0.7693E+01
   5.680  0.4974E+00  0.7698E+01
   5.690  0.4938E+00  0.7703E+01
   5.700  0.4894E+00  0.7708E+01
   5.710  0.4842E+00  0.7712E+01
   5.720  0.4781E+00  0.7717E+01
   5.730  0.4711E+00  0.7722E+01
   5.740  0.4632E+00  0.7727E+01
   5.750  0.4543E+00  0.7731E+01
   5.760  0.4447E+00  0.7736E+01
   5.770  0.4342E+00  0.7740E+01
   5.780  0.4231E+00  0.7744E+01
   5.790  0.4114E+00  0.7748E+01
   5.800  0.3992E+00  0.7752E+01
   5.810  0.3868E+00  0.7756E+01
   5.820  0.3743E+00  0.7760E+01
   5.830  0.3620E+00  0.7763E+01
   5.840  0.3500E+00  0.7767E+01
   5.850  0.3386E+00  0.7770E+01
   5.860  0.3280E+00  0.7774E+01
   5.870  0.3184E+00  0.7777E+01
   5.880  0.3098E+00  0.7780E+01
   5.890  0.3026E+00  0.7783E+01
   5.900  0.2967E+00  0.7786E+01
   5.910  0.2922E+00  0.7789E+01
   5.920  0.2891E+00  0.7792E+01
   5.930  0.2874E+00  0.7795E+01
   5.940  0.2869E+00  0.7797E+01
   5.950  0.2875E+00  0.7800E+01
   5.960  0.2890E+00  0.7803E+01
   5.970  0.2911E+00  0.7806E+01
   5.980  0.2936E+00  0.7809E+01
   5.990  0.2962E+00  0.7812E+01
   6.000  0.2985E+00  0.7815E+01
   6.010  0.3004E+00  0.7818E+01
   6.020  0.3017E+00  0.7821E+01
   6.030  0.3019E+00  0.7824E+01
   6.040  0.3011E+00  0.7827E+01
   6.050  0.2990E+00  0.7830E+01
   6.060  0.2957E+00  0.7833E+01
   6.070  0.2910E+00  0.7836E+01
   6.080  0.2851E+00  0.7839E+01
   6.090  0.2780E+00  0.7842E+01
   6.100  0.2699E+00  0.7844E+01
   6.110  0.2610E+00  0.7847E+01
   6.120  0.2513E+00  0.7849E+01
   6.130  0.2412E+00  0.7852E+01
   6.140  0.2309E+00  0.7854E+01
   6.150  0.2205E+00  0.7856E+01
   6.160  0.2102E+00  0.7858E+01
   6.170  0.2002E+00  0.7860E+01
   6.180  0.1907E+00  0.7862E+01
   6.190  0.1816E+00  0.7864E+01
   6.200  0.1731E+00  0.7866E+01
   6.210  0.1653E+00  0.7868E+01
   6.220  0.1580E+00  0.7869E+01
   6.230  0.1513E+00  0.7871E+01
   6.240  0.1452E+00  0.7872E+01
   6.250  0.1395E+00  0.7873E+01
   6.260  0.1341E+00  0.7875E+01
   6.270  0.1291E+00  0.7876E+01
   6.280  0.1242E+00  0.7877E+01
   6.290  0.1195E+00  0.7879E+01
   6.300  0.1148E+00  0.7880E+01
   6.310  0.1100E+00  0.7881E+01
   6.320  0.1052E+00  0.7882E+01
   6.330  0.1003E+00  0.7883E+01
   6.340  0.9517E-01  0.7884E+01
   6.350  0.8993E-01  0.7885E+01
   6.360  0.8454E-01  0.7886E+01
   6.370  0.7904E-01  0.7886E+01
   6.380  0.7345E-01  0.7887E+01
   6.390  0.6783E-01  0.7888E+01
   6.400  0.6221E-01  0.7888E+01
   6.410  0.5666E-01  0.7889E+01
   6.420  0.5122E-01  0.7889E+01
   6.430  0.4596E-01  0.7890E+01
   6.440  0.4091E-01  0.7890E+01
   6.450  0.3613E-01  0.7891E+01
   6.460  0.3164E-01  0.7891E+01
   6.470  0.2747E-01  0.7891E+01
   6.480  0.2365E-01  0.7892E+01
   6.490  0.2019E-01  0.7892E+01
   6.500  0.1708E-01  0.7892E+01
   6.510  0.1431E-01  0.7892E+01
   6.520  0.1189E-01  0.7892E+01
   6.530  0.9786E-02  0.7892E+01
   6.540  0.7979E-02  0.7892E+01
   6.550  0.6444E-02  0.7892E+01
   6.560  0.5156E-02  0.7892E+01
   6.570  0.4085E-02  0.7892E+01
   6.580  0.3206E-02  0.7893E+01
   6.590  0.2491E-02  0.7893E+01
   6.600  0.1917E-02  0.7893E+01
   6.610  0.1460E-02  0.7893E+01
   6.620  0.1102E-02  0.7893E+01
   6.630  0.8230E-03  0.7893E+01
   6.640  0.6089E-03  0.7893E+01
   6.650  0.4463E-03  0.7893E+01
   6.660  0.3245E-03  0.7893E+01
   6.670  0.2346E-03  0.7893E+01
   6.680  0.1696E-03  0.7893E+01
   6.690  0.1239E-03  0.7893E+01
   6.700  0.9367E-04  0.7893E+01
   6.710  0.7602E-04  0.7893E+01
   6.720  0.6941E-04  0.7893E+01
   6.730  0.7342E-04  0.7893E+01
   6.740  0.8879E-04  0.7893E+01
   6.750  0.1175E-03  0.7893E+01
   6.760  0.1629E-03  0.7893E+01
   6.770  0.2301E-03  0.7893E+01
   6.780  0.3261E-03  0.7893E+01
   6.790  0.4603E-03  0.7893E+01
   6.800  0.6446E-03  0.7893E+01
   6.810  0.8947E-03  0.7893E+01
   6.820  0.1230E-02  0.7893E+01
   6.830  0.1673E-02  0.7893E+01
   6.840  0.2253E-02  0.7893E+01
   6.850  0.3002E-02  0.7893E+01
   6.860  0.3960E-02  0.7893E+01
   6.870  0.5170E-02  0.7893E+01
   6.880  0.6681E-02  0.7893E+01
   6.890  0.8546E-02  0.7893E+01
   6.900  0.1082E-01  0.7893E+01
   6.910  0.1356E-01  0.7893E+01
   6.920  0.1681E-01  0.7893E+01
   6.930  0.2064E-01  0.7894E+01
   6.940  0.2508E-01  0.7894E+01
   6.950  0.3017E-01  0.7894E+01
   6.960  0.3593E-01  0.7894E+01
   6.970  0.4236E-01  0.7895E+01
   6.980  0.4945E-01  0.7895E+01
   6.990  0.5714E-01  0.7896E+01
   7.000  0.6538E-01  0.7897E+01
   7.010  0.7408E-01  0.7897E+01
   7.020  0.8312E-01  0.7898E+01
   7.030  0.9237E-01  0.7899E+01
   7.040  0.1017E+00  0.7900E+01
   7.050  0.1109E+00  0.7901E+01
   7.060  0.1199E+00  0.7902E+01
   7.070  0.1284E+00  0.7904E+01
   7.080  0.1364E+00  0.7905E+01
   7.090  0.1437E+00  0.7907E+01
   7.100  0.1502E+00  0.7908E+01
   7.110  0.1559E+00  0.7910E+01
   7.120  0.1608E+00  0.7911E+01
   7.130  0.1648E+00  0.7913E+01
   7.140  0.1682E+00  0.7915E+01
   7.150  0.1709E+00  0.7916E+01
   7.160  0.1731E+00  0.7918E+01
   7.170  0.1751E+00  0.7920E+01
   7.180  0.1771E+00  0.7921E+01
   7.190  0.1792E+00  0.7923E+01
   7.200  0.1818E+00  0.7925E+01
   7.210  0.1850E+00  0.7927E+01
   7.220  0.1890E+00  0.7929E+01
   7.230  0.1940E+00  0.7931E+01
   7.240  0.2001E+00  0.7933E+01
   7.250  0.2074E+00  0.7935E+01
   7.260  0.2160E+00  0.7937E+01
   7.270  0.2259E+00  0.7939E+01
   7.280  0.2369E+00  0.7942E+01
   7.290  0.2490E+00  0.7944E+01
   7.300  0.2621E+00  0.7947E+01
   7.310  0.2760E+00  0.7950E+01
   7.320  0.2905E+00  0.7952E+01
   7.330  0.3053E+00  0.7955E+01
   7.340  0.3202E+00  0.7959E+01
   7.350  0.3349E+00  0.7962E+01
   7.360  0.3494E+00  0.7966E+01
   7.370  0.3632E+00  0.7969E+01
   7.380  0.3763E+00  0.7973E+01
   7.390  0.3885E+00  0.7977E+01
   7.400  0.3997E+00  0.7981E+01
   7.410  0.4098E+00  0.7985E+01
   7.420  0.4187E+00  0.7989E+01
   7.430  0.4265E+00  0.7993E+01
   7.440  0.4332E+00  0.7998E+01
   7.450  0.4389E+00  0.8002E+01
   7.460  0.4437E+00  0.8007E+01
   7.470  0.4477E+00  0.8011E+01
   7.480  0.4512E+00  0.8015E+01
   7.490  0.4542E+00  0.8020E+01
   7.500  0.4569E+00  0.8025E+01
   7.510  0.4595E+00  0.8029E+01
   7.520  0.4620E+00  0.8034E+01
   7.530  0.4647E+00  0.8038E+01
   7.540  0.4675E+00  0.8043E+01
   7.550  0.4706E+00  0.8048E+01
   7.560  0.4740E+00  0.8053E+01
   7.570  0.4776E+00  0.8057E+01
   7.580  0.4815E+00  0.8062E+01
   7.590  0.4855E+00  0.8067E+01
   7.600  0.4898E+00  0.8072E+01
   7.610  0.4940E+00  0.8077E+01
   7.620  0.4982E+00  0.8082E+01
   7.630  0.5022E+00  0.8087E+01
   7.640  0.5059E+00  0.8092E+01
   7.650  0.5092E+00  0.8097E+01
   7.660  0.5119E+00  0.8102E+01
   7.670  0.5140E+00  0.8107E+01
   7.680  0.5153E+00  0.8112E+01
   7.690  0.5158E+00  0.8118E+01
   7.700  0.5154E+00  0.8123E+01
   7.710  0.5141E+00  0.8128E+01
   7.720  0.5118E+00  0.8133E+01
   7.730  0.5088E+00  0.8138E+01
   7.740  0.5050E+00  0.8143E+01
   7.750  0.5006E+00  0.8148E+01
   7.760  0.4958E+00  0.8153E+01
   7.770  0.4908E+00  0.8158E+01
   7.780  0.4859E+00  0.8163E+01
   7.790  0.4813E+00  0.8168E+01
   7.800  0.4774E+00  0.8172E+01
   7.810  0.4744E+00  0.8177E+01
   7.820  0.4726E+00  0.8182E+01
   7.830  0.4722E+00  0.8187E+01
   7.840  0.4734E+00  0.8191E+01
   7.850  0.4765E+00  0.8196E+01
   7.860  0.4814E+00  0.8201E+01
   7.870  0.4884E+00  0.8206E+01
   7.880  0.4973E+00  0.8211E+01
   7.890  0.5081E+00  0.8216E+01
   7.900  0.5208E+00  0.8221E+01
   7.910  0.5351E+00  0.8226E+01
   7.920  0.5509E+00  0.8232E+01
   7.930  0.5679E+00  0.8238E+01
   7.940  0.5862E+00  0.8244E+01
   7.950  0.6053E+00  0.8250E+01
   7.960  0.6252E+00  0.8256E+01
   7.970  0.6456E+00  0.8262E+01
   7.980  0.6665E+00  0.8269E+01
   7.990  0.6877E+00  0.8276E+01
   8.000  0.7091E+00  0.8283E+01
   8.010  0.7306E+00  0.8290E+01
   8.020  0.7521E+00  0.8298E+01
   8.030  0.7734E+00  0.8305E+01
   8.040  0.7944E+00  0.8313E+01
   8.050  0.8150E+00  0.8322E+01
   8.060  0.8350E+00  0.8330E+01
   8.070  0.8541E+00  0.8338E+01
   8.080  0.8723E+00  0.8347E+01
   8.090  0.8892E+00  0.8356E+01
   8.100  0.9047E+00  0.8365E+01
   8.110  0.9186E+00  0.8374E+01
   8.120  0.9306E+00  0.8384E+01
   8.130  0.9406E+00  0.8393E+01
   8.140  0.9486E+00  0.8403E+01
   8.150  0.9545E+00  0.8412E+01
   8.160  0.9582E+00  0.8422E+01
   8.170  0.9598E+00  0.8431E+01
   8.180  0.9594E+00  0.8441E+01
   8.190  0.9571E+00  0.8450E+01
   8.200  0.9531E+00  0.8460E+01
   8.210  0.9477E+00  0.8469E+01
   8.220  0.9410E+00  0.8479E+01
   8.230  0.9333E+00  0.8488E+01
   8.240  0.9249E+00  0.8497E+01
   8.250  0.9160E+00  0.8507E+01
   8.260  0.9069E+00  0.8516E+01
   8.270  0.8978E+00  0.8525E+01
   8.280  0.8890E+00  0.8533E+01
   8.290  0.8807E+00  0.8542E+01
   8.300  0.8732E+00  0.8551E+01
   8.310  0.8666E+00  0.8560E+01
   8.320  0.8612E+00  0.8568E+01
   8.330  0.8572E+00  0.8577E+01
   8.340  0.8548E+00  0.8585E+01
   8.350  0.8541E+00  0.8594E+01
   8.360  0.8555E+00  0.8603E+01
   8.370  0.8590E+00  0.8611E+01
   8.380  0.8649E+00  0.8620E+01
   8.390  0.8732E+00  0.8628E+01
   8.400  0.8841E+00  0.8637E+01
   8.410  0.8978E+00  0.8646E+01
   8.420  0.9142E+00  0.8655E+01
   8.430  0.9333E+00  0.8665E+01
   8.440  0.9551E+00  0.8674E+01
   8.450  0.9795E+00  0.8684E+01
   8.460  0.1006E+01  0.8694E+01
   8.470  0.1035E+01  0.8705E+01
   8.480  0.1066E+01  0.8715E+01
   8.490  0.1099E+01  0.8726E+01
   8.500  0.1133E+01  0.8738E+01
   8.510  0.1167E+01  0.8749E+01
   8.520  0.1202E+01  0.8761E+01
   8.530  0.1237E+01  0.8774E+01
   8.540  0.1270E+01  0.8786E+01
   8.550  0.1303E+01  0.8799E+01
   8.560  0.1334E+01  0.8813E+01
   8.570  0.1363E+01  0.8826E+01
   8.580  0.1390E+01  0.8840E+01
   8.590  0.1413E+01  0.8854E+01
   8.600  0.1433E+01  0.8869E+01
   8.610  0.1451E+01  0.8883E+01
   8.620  0.1464E+01  0.8898E+01
   8.630  0.1475E+01  0.8913E+01
   8.640  0.1482E+01  0.8927E+01
   8.650  0.1487E+01  0.8942E+01
   8.660  0.1489E+01  0.8957E+01
   8.670  0.1489E+01  0.8972E+01
   8.680  0.1487E+01  0.8987E+01
   8.690  0.1484E+01  0.9002E+01
   8.700  0.1481E+01  0.9017E+01
   8.710  0.1477E+01  0.9031E+01
   8.720  0.1474E+01  0.9046E+01
   8.730  0.1472E+01  0.9061E+01
   8.740  0.1471E+01  0.9075E+01
   8.750  0.1472E+01  0.9090E+01
   8.760  0.1474E+01  0.9105E+01
   8.770  0.1478E+01  0.9120E+01
   8.780  0.1483E+01  0.9135E+01
   8.790  0.1489E+01  0.9149E+01
   8.800  0.1497E+01  0.9164E+01
   8.810  0.1505E+01  0.9179E+01
   8.820  0.1515E+01  0.9195E+01
   8.830  0.1524E+01  0.9210E+01
   8.840  0.1534E+01  0.9225E+01
   8.850  0.1543E+01  0.9241E+01
   8.860  0.1552E+01  0.9256E+01
   8.870  0.1560E+01  0.9272E+01
   8.880  0.1567E+01  0.9287E+01
   8.890  0.1574E+01  0.9303E+01
   8.900  0.1578E+01  0.9319E+01
   8.910  0.1582E+01  0.9335E+01
   8.920  0.1584E+01  0.9351E+01
   8.930  0.1585E+01  0.9366E+01
   8.940  0.1584E+01  0.9382E+01
   8.950  0.1582E+01  0.9398E+01
   8.960  0.1578E+01  0.9414E+01
   8.970  0.1572E+01  0.9430E+01
   8.980  0.1565E+01  0.9445E+01
   8.990  0.1557E+01  0.9461E+01
   9.000  0.1546E+01  0.9476E+01
   9.010  0.1534E+01  0.9492E+01
   9.020  0.1521E+01  0.9507E+01
   9.030  0.1506E+01  0.9522E+01
   9.040  0.1491E+01  0.9537E+01
   9.050  0.1474E+01  0.9552E+01
   9.060  0.1456E+01  0.9566E+01
   9.070  0.1437E+01  0.9580E+01
   9.080  0.1418E+01  0.9595E+01
   9.090  0.1398E+01  0.9609E+01
   9.100  0.1378E+01  0.9622E+01
   9.110  0.1358E+01  0.9636E+01
   9.120  0.1339E+01  0.9649E+01
   9.130  0.1320E+01  0.9663E+01
   9.140  0.1301E+01  0.9676E+01
   9.150  0.1283E+01  0.9688E+01
   9.160  0.1265E+01  0.9701E+01
   9.170  0.1249E+01  0.9714E+01
   9.180  0.1232E+01  0.9726E+01
   9.190  0.1217E+01  0.9738E+01
   9.200  0.1202E+01  0.9750E+01
   9.210  0.1188E+01  0.9762E+01
   9.220  0.1174E+01  0.9774E+01
   9.230  0.1161E+01  0.9785E+01
   9.240  0.1149E+01  0.9797E+01
   9.250  0.1137E+01  0.9808E+01
   9.260  0.1125E+01  0.9819E+01
   9.270  0.1115E+01  0.9831E+01
   9.280  0.1104E+01  0.9842E+01
   9.290  0.1095E+01  0.9853E+01
   9.300  0.1086E+01  0.9863E+01
   9.310  0.1077E+01  0.9874E+01
   9.320  0.1070E+01  0.9885E+01
   9.330  0.1063E+01  0.9896E+01
   9.340  0.1057E+01  0.9906E+01
   9.350  0.1053E+01  0.9917E+01
   9.360  0.1049E+01  0.9927E+01
   9.370  0.1046E+01  0.9938E+01
   9.380  0.1044E+01  0.9948E+01
   9.390  0.1043E+01  0.9958E+01
   9.400  0.1044E+01  0.9969E+01
   9.410  0.1047E+01  0.9979E+01
   9.420  0.1051E+01  0.9990E+01
   9.430  0.1057E+01  0.1000E+02
   9.440  0.1066E+01  0.1001E+02
   9.450  0.1077E+01  0.1002E+02
   9.460  0.1091E+01  0.1003E+02
   9.470  0.1107E+01  0.1004E+02
   9.480  0.1126E+01  0.1006E+02
   9.490  0.1149E+01  0.1007E+02
   9.500  0.1174E+01  0.1008E+02
   9.510  0.1202E+01  0.1009E+02
   9.520  0.1233E+01  0.1010E+02
   9.530  0.1266E+01  0.1012E+02
   9.540  0.1302E+01  0.1013E+02
   9.550  0.1339E+01  0.1014E+02
   9.560  0.1378E+01  0.1016E+02
   9.570  0.1418E+01  0.1017E+02
   9.580  0.1458E+01  0.1018E+02
   9.590  0.1498E+01  0.1020E+02
   9.600  0.1538E+01  0.1021E+02
   9.610  0.1577E+01  0.1023E+02
   9.620  0.1615E+01  0.1025E+02
   9.630  0.1652E+01  0.1026E+02
   9.640  0.1687E+01  0.1028E+02
   9.650  0.1720E+01  0.1030E+02
   9.660  0.1751E+01  0.1031E+02
   9.670  0.1779E+01  0.1033E+02
   9.680  0.1805E+01  0.1035E+02
   9.690  0.1828E+01  0.1037E+02
   9.700  0.1849E+01  0.1039E+02
   9.710  0.1867E+01  0.1041E+02
   9.720  0.1883E+01  0.1042E+02
   9.730  0.1897E+01  0.1044E+02
   9.740  0.1908E+01  0.1046E+02
   9.750  0.1917E+01  0.1048E+02
   9.760  0.1924E+01  0.1050E+02
   9.770  0.1929E+01  0.1052E+02
   9.780  0.1933E+01  0.1054E+02
   9.790  0.1935E+01  0.1056E+02
   9.800  0.1936E+01  0.1058E+02
   9.810  0.1936E+01  0.1060E+02
   9.820  0.1936E+01  0.1062E+02
   9.830  0.1934E+01  0.1064E+02
   9.840  0.1932E+01  0.1066E+02
   9.850  0.1929E+01  0.1068E+02
   9.860  0.1926E+01  0.1069E+02
   9.870  0.1921E+01  0.1071E+02
   9.880  0.1916E+01  0.1073E+02
   9.890  0.1911E+01  0.1075E+02
   9.900  0.1904E+01  0.1077E+02
   9.910  0.1896E+01  0.1079E+02
   9.920  0.1888E+01  0.1081E+02
   9.930  0.1879E+01  0.1083E+02
   9.940  0.1869E+01  0.1085E+02
   9.950  0.1859E+01  0.1086E+02
   9.960  0.1849E+01  0.1088E+02
   9.970  0.1838E+01  0.1090E+02
   9.980  0.1827E+01  0.1092E+02
   9.990  0.1816E+01  0.1094E+02
  10.000  0.1805E+01  0.1096E+02
  10.010  0.1793E+01  0.1097E+02
  10.020  0.1782E+01  0.1099E+02
  10.030  0.1771E+01  0.1101E+02
  10.040  0.1759E+01  0.1103E+02
  10.050  0.1747E+01  0.1104E+02
  10.060  0.1735E+01  0.1106E+02
  10.070  0.1722E+01  0.1108E+02
  10.080  0.1708E+01  0.1110E+02
  10.090  0.1694E+01  0.1111E+02
  10.100  0.1679E+01  0.1113E+02
  10.110  0.1663E+01  0.1115E+02
  10.120  0.1647E+01  0.1116E+02
  10.130  0.1631E+01  0.1118E+02
  10.140  0.1615E+01  0.1120E+02
  10.150  0.1598E+01  0.1121E+02
  10.160  0.1582E+01  0.1123E+02
  10.170  0.1566E+01  0.1124E+02
  10.180  0.1550E+01  0.1126E+02
  10.190  0.1535E+01  0.1127E+02
  10.200  0.1521E+01  0.1129E+02
  10.210  0.1507E+01  0.1130E+02
  10.220  0.1495E+01  0.1132E+02
  10.230  0.1483E+01  0.1133E+02
  10.240  0.1472E+01  0.1135E+02
  10.250  0.1462E+01  0.1136E+02
  10.260  0.1452E+01  0.1138E+02
  10.270  0.1444E+01  0.1139E+02
  10.280  0.1435E+01  0.1141E+02
  10.290  0.1427E+01  0.1142E+02
  10.300  0.1420E+01  0.1144E+02
  10.310  0.1412E+01  0.1145E+02
  10.320  0.1405E+01  0.1146E+02
  10.330  0.1397E+01  0.1148E+02
  10.340  0.1389E+01  0.1149E+02
  10.350  0.1381E+01  0.1151E+02
  10.360  0.1372E+01  0.1152E+02
  10.370  0.1362E+01  0.1153E+02
  10.380  0.1351E+01  0.1155E+02
  10.390  0.1340E+01  0.1156E+02
  10.400  0.1327E+01  0.1157E+02
  10.410  0.1313E+01  0.1159E+02
  10.420  0.1298E+01  0.1160E+02
  10.430  0.1282E+01  0.1161E+02
  10.440  0.1266E+01  0.1162E+02
  10.450  0.1250E+01  0.1164E+02
  10.460  0.1233E+01  0.1165E+02
  10.470  0.1217E+01  0.1166E+02
  10.480  0.1203E+01  0.1167E+02
  10.490  0.1190E+01  0.1169E+02
  10.500  0.1178E+01  0.1170E+02
  10.510  0.1170E+01  0.1171E+02
  10.520  0.1165E+01  0.1172E+02
  10.530  0.1163E+01  0.1173E+02
  10.540  0.1165E+01  0.1174E+02
  10.550  0.1171E+01  0.1176E+02
  10.560  0.1181E+01  0.1177E+02
  10.570  0.1195E+01  0.1178E+02
  10.580  0.1214E+01  0.1179E+02
  10.590  0.1236E+01  0.1180E+02
  10.600  0.1261E+01  0.1182E+02
  10.610  0.1290E+01  0.1183E+02
  10.620  0.1320E+01  0.1184E+02
  10.630  0.1352E+01  0.1186E+02
  10.640  0.1384E+01  0.1187E+02
  10.650  0.1416E+01  0.1188E+02
  10.660  0.1448E+01  0.1190E+02
  10.670  0.1478E+01  0.1191E+02
  10.680  0.1505E+01  0.1193E+02
  10.690  0.1529E+01  0.1194E+02
  10.700  0.1549E+01  0.1196E+02
  10.710  0.1565E+01  0.1197E+02
  10.720  0.1576E+01  0.1199E+02
  10.730  0.1583E+01  0.1201E+02
  10.740  0.1584E+01  0.1202E+02
  10.750  0.1581E+01  0.1204E+02
  10.760  0.1572E+01  0.1205E+02
  10.770  0.1558E+01  0.1207E+02
  10.780  0.1540E+01  0.1208E+02
  10.790  0.1517E+01  0.1210E+02
  10.800  0.1491E+01  0.1211E+02
  10.810  0.1461E+01  0.1213E+02
  10.820  0.1428E+01  0.1214E+02
  10.830  0.1392E+01  0.1216E+02
  10.840  0.1355E+01  0.1217E+02
  10.850  0.1317E+01  0.1218E+02
  10.860  0.1278E+01  0.1220E+02
  10.870  0.1239E+01  0.1221E+02
  10.880  0.1201E+01  0.1222E+02
  10.890  0.1164E+01  0.1223E+02
  10.900  0.1129E+01  0.1224E+02
  10.910  0.1097E+01  0.1226E+02
  10.920  0.1068E+01  0.1227E+02
  10.930  0.1042E+01  0.1228E+02
  10.940  0.1021E+01  0.1229E+02
  10.950  0.1004E+01  0.1230E+02
  10.960  0.9909E+00  0.1231E+02
  10.970  0.9828E+00  0.1232E+02
  10.980  0.9792E+00  0.1233E+02
  10.990  0.9801E+00  0.1234E+02
  11.000  0.9851E+00  0.1235E+02
  11.010  0.9939E+00  0.1236E+02
  11.020  0.1006E+01  0.1237E+02
  11.030  0.1020E+01  0.1238E+02
  11.040  0.1037E+01  0.1239E+02
  11.050  0.1055E+01  0.1240E+02
  11.060  0.1073E+01  0.1241E+02
  11.070  0.1091E+01  0.1242E+02
  11.080  0.1108E+01  0.1243E+02
  11.090  0.1123E+01  0.1244E+02
  11.100  0.1137E+01  0.1245E+02
  11.110  0.1148E+01  0.1246E+02
  11.120  0.1157E+01  0.1248E+02
  11.130  0.1163E+01  0.1249E+02
  11.140  0.1165E+01  0.1250E+02
  11.150  0.1166E+01  0.1251E+02
  11.160  0.1164E+01  0.1252E+02
  11.170  0.1160E+01  0.1253E+02
  11.180  0.1154E+01  0.1254E+02
  11.190  0.1148E+01  0.1256E+02
  11.200  0.1140E+01  0.1257E+02
  11.210  0.1133E+01  0.1258E+02
  11.220  0.1127E+01  0.1259E+02
  11.230  0.1121E+01  0.1260E+02
  11.240  0.1116E+01  0.1261E+02
  11.250  0.1114E+01  0.1262E+02
  11.260  0.1113E+01  0.1263E+02
  11.270  0.1114E+01  0.1265E+02
  11.280  0.1117E+01  0.1266E+02
  11.290  0.1123E+01  0.1267E+02
  11.300  0.1130E+01  0.1268E+02
  11.310  0.1140E+01  0.1269E+02
  11.320  0.1151E+01  0.1270E+02
  11.330  0.1163E+01  0.1271E+02
  11.340  0.1177E+01  0.1273E+02
  11.350  0.1192E+01  0.1274E+02
  11.360  0.1209E+01  0.1275E+02
  11.370  0.1226E+01  0.1276E+02
  11.380  0.1243E+01  0.1277E+02
  11.390  0.1262E+01  0.1279E+02
  11.400  0.1281E+01  0.1280E+02
  11.410  0.1300E+01  0.1281E+02
  11.420  0.1320E+01  0.1283E+02
  11.430  0.1340E+01  0.1284E+02
  11.440  0.1360E+01  0.1285E+02
  11.450  0.1380E+01  0.1287E+02
  11.460  0.1400E+01  0.1288E+02
  11.470  0.1419E+01  0.1290E+02
  11.480  0.1437E+01  0.1291E+02
  11.490  0.1453E+01  0.1292E+02
  11.500  0.1468E+01  0.1294E+02
  11.510  0.1480E+01  0.1295E+02
  11.520  0.1490E+01  0.1297E+02
  11.530  0.1497E+01  0.1298E+02
  11.540  0.1501E+01  0.1300E+02
  11.550  0.1501E+01  0.1301E+02
  11.560  0.1499E+01  0.1303E+02
  11.570  0.1493E+01  0.1304E+02
  11.580  0.1484E+01  0.1306E+02
  11.590  0.1473E+01  0.1307E+02
  11.600  0.1458E+01  0.1309E+02
  11.610  0.1442E+01  0.1310E+02
  11.620  0.1424E+01  0.1312E+02
  11.630  0.1405E+01  0.1313E+02
  11.640  0.1385E+01  0.1314E+02
  11.650  0.1364E+01  0.1316E+02
  11.660  0.1343E+01  0.1317E+02
  11.670  0.1322E+01  0.1318E+02
  11.680  0.1301E+01  0.1320E+02
  11.690  0.1280E+01  0.1321E+02
  11.700  0.1259E+01  0.1322E+02
  11.710  0.1238E+01  0.1324E+02
  11.720  0.1218E+01  0.1325E+02
  11.730  0.1197E+01  0.1326E+02
  11.740  0.1176E+01  0.1327E+02
  11.750  0.1155E+01  0.1328E+02
  11.760  0.1134E+01  0.1329E+02
  11.770  0.1112E+01  0.1331E+02
  11.780  0.1090E+01  0.1332E+02
  11.790  0.1068E+01  0.1333E+02
  11.800  0.1047E+01  0.1334E+02
  11.810  0.1025E+01  0.1335E+02
  11.820  0.1004E+01  0.1336E+02
  11.830  0.9838E+00  0.1337E+02
  11.840  0.9644E+00  0.1338E+02
  11.850  0.9462E+00  0.1339E+02
  11.860  0.9291E+00  0.1340E+02
  11.870  0.9135E+00  0.1340E+02
  11.880  0.8992E+00  0.1341E+02
  11.890  0.8865E+00  0.1342E+02
  11.900  0.8751E+00  0.1343E+02
  11.910  0.8650E+00  0.1344E+02
  11.920  0.8561E+00  0.1345E+02
  11.930  0.8484E+00  0.1346E+02
  11.940  0.8416E+00  0.1347E+02
  11.950  0.8358E+00  0.1347E+02
  11.960  0.8309E+00  0.1348E+02
  11.970  0.8269E+00  0.1349E+02
  11.980  0.8239E+00  0.1350E+02
  11.990  0.8222E+00  0.1351E+02
  12.000  0.8218E+00  0.1352E+02
  12.010  0.8230E+00  0.1352E+02
  12.020  0.8262E+00  0.1353E+02
  12.030  0.8316E+00  0.1354E+02
  12.040  0.8395E+00  0.1355E+02
  12.050  0.8501E+00  0.1356E+02
  12.060  0.8636E+00  0.1357E+02
  12.070  0.8801E+00  0.1357E+02
  12.080  0.8996E+00  0.1358E+02
  12.090  0.9219E+00  0.1359E+02
  12.100  0.9469E+00  0.1360E+02
  12.110  0.9741E+00  0.1361E+02
  12.120  0.1003E+01  0.1362E+02
  12.130  0.1034E+01  0.1363E+02
  12.140  0.1065E+01  0.1364E+02
  12.150  0.1096E+01  0.1365E+02
  12.160  0.1128E+01  0.1367E+02
  12.170  0.1158E+01  0.1368E+02
  12.180  0.1187E+01  0.1369E+02
  12.190  0.1215E+01  0.1370E+02
  12.200  0.1240E+01  0.1371E+02
  12.210  0.1263E+01  0.1373E+02
  12.220  0.1283E+01  0.1374E+02
  12.230  0.1300E+01  0.1375E+02
  12.240  0.1315E+01  0.1376E+02
  12.250  0.1327E+01  0.1378E+02
  12.260  0.1336E+01  0.1379E+02
  12.270  0.1343E+01  0.1380E+02
  12.280  0.1348E+01  0.1382E+02
  12.290  0.1350E+01  0.1383E+02
  12.300  0.1351E+01  0.1385E+02
  12.310  0.1350E+01  0.1386E+02
  12.320  0.1347E+01  0.1387E+02
  12.330  0.1343E+01  0.1389E+02
  12.340  0.1339E+01  0.1390E+02
  12.350  0.1334E+01  0.1391E+02
  12.360  0.1328E+01  0.1393E+02
  12.370  0.1321E+01  0.1394E+02
  12.380  0.1315E+01  0.1395E+02
  12.390  0.1308E+01  0.1397E+02
  12.400  0.1301E+01  0.1398E+02
  12.410  0.1293E+01  0.1399E+02
  12.420  0.1286E+01  0.1400E+02
  12.430  0.1278E+01  0.1402E+02
  12.440  0.1270E+01  0.1403E+02
  12.450  0.1261E+01  0.1404E+02
  12.460  0.1252E+01  0.1405E+02
  12.470  0.1243E+01  0.1407E+02
  12.480  0.1233E+01  0.1408E+02
  12.490  0.1222E+01  0.1409E+02
  12.500  0.1211E+01  0.1410E+02
  12.510  0.1200E+01  0.1412E+02
  12.520  0.1188E+01  0.1413E+02
  12.530  0.1176E+01  0.1414E+02
  12.540  0.1164E+01  0.1415E+02
  12.550  0.1151E+01  0.1416E+02
  12.560  0.1138E+01  0.1417E+02
  12.570  0.1124E+01  0.1419E+02
  12.580  0.1110E+01  0.1420E+02
  12.590  0.1096E+01  0.1421E+02
  12.600  0.1081E+01  0.1422E+02
  12.610  0.1065E+01  0.1423E+02
  12.620  0.1049E+01  0.1424E+02
  12.630  0.1032E+01  0.1425E+02
  12.640  0.1015E+01  0.1426E+02
  12.650  0.9967E+00  0.1427E+02
  12.660  0.9782E+00  0.1428E+02
  12.670  0.9594E+00  0.1429E+02
  12.680  0.9403E+00  0.1430E+02
  12.690  0.9210E+00  0.1431E+02
  12.700  0.9018E+00  0.1432E+02
  12.710  0.8828E+00  0.1433E+02
  12.720  0.8643E+00  0.1433E+02
  12.730  0.8464E+00  0.1434E+02
  12.740  0.8295E+00  0.1435E+02
  12.750  0.8136E+00  0.1436E+02
  12.760  0.7989E+00  0.1437E+02
  12.770  0.7857E+00  0.1437E+02
  12.780  0.7740E+00  0.1438E+02
  12.790  0.7641E+00  0.1439E+02
  12.800  0.7559E+00  0.1440E+02
  12.810  0.7496E+00  0.1441E+02
  12.820  0.7453E+00  0.1441E+02
  12.830  0.7430E+00  0.1442E+02
  12.840  0.7426E+00  0.1443E+02
  12.850  0.7443E+00  0.1443E+02
  12.860  0.7480E+00  0.1444E+02
  12.870  0.7537E+00  0.1445E+02
  12.880  0.7614E+00  0.1446E+02
  12.890  0.7710E+00  0.1447E+02
  12.900  0.7826E+00  0.1447E+02
  12.910  0.7961E+00  0.1448E+02
  12.920  0.8114E+00  0.1449E+02
  12.930  0.8285E+00  0.1450E+02
  12.940  0.8473E+00  0.1451E+02
  12.950  0.8678E+00  0.1451E+02
  12.960  0.8897E+00  0.1452E+02
  12.970  0.9131E+00  0.1453E+02
  12.980  0.9376E+00  0.1454E+02
  12.990  0.9631E+00  0.1455E+02
  13.000  0.9894E+00  0.1456E+02
  13.010  0.1016E+01  0.1457E+02
  13.020  0.1043E+01  0.1458E+02
  13.030  0.1070E+01  0.1459E+02
  13.040  0.1097E+01  0.1460E+02
  13.050  0.1123E+01  0.1461E+02
  13.060  0.1148E+01  0.1463E+02
  13.070  0.1172E+01  0.1464E+02
  13.080  0.1194E+01  0.1465E+02
  13.090  0.1216E+01  0.1466E+02
  13.100  0.1236E+01  0.1467E+02
  13.110  0.1255E+01  0.1469E+02
  13.120  0.1272E+01  0.1470E+02
  13.130  0.1289E+01  0.1471E+02
  13.140  0.1304E+01  0.1473E+02
  13.150  0.1319E+01  0.1474E+02
  13.160  0.1333E+01  0.1475E+02
  13.170  0.1346E+01  0.1477E+02
  13.180  0.1360E+01  0.1478E+02
  13.190  0.1373E+01  0.1479E+02
  13.200  0.1387E+01  0.1481E+02
  13.210  0.1401E+01  0.1482E+02
  13.220  0.1415E+01  0.1484E+02
  13.230  0.1430E+01  0.1485E+02
  13.240  0.1445E+01  0.1486E+02
  13.250  0.1459E+01  0.1488E+02
  13.260  0.1474E+01  0.1489E+02
  13.270  0.1488E+01  0.1491E+02
  13.280  0.1502E+01  0.1492E+02
  13.290  0.1516E+01  0.1494E+02
  13.300  0.1528E+01  0.1495E+02
  13.310  0.1539E+01  0.1497E+02
  13.320  0.1548E+01  0.1498E+02
  13.330  0.1555E+01  0.1500E+02
  13.340  0.1560E+01  0.1502E+02
  13.350  0.1562E+01  0.1503E+02
  13.360  0.1562E+01  0.1505E+02
  13.370  0.1558E+01  0.1506E+02
  13.380  0.1552E+01  0.1508E+02
  13.390  0.1542E+01  0.1509E+02
  13.400  0.1529E+01  0.1511E+02
  13.410  0.1512E+01  0.1512E+02
  13.420  0.1492E+01  0.1514E+02
  13.430  0.1470E+01  0.1515E+02
  13.440  0.1444E+01  0.1517E+02
  13.450  0.1416E+01  0.1518E+02
  13.460  0.1387E+01  0.1520E+02
  13.470  0.1356E+01  0.1521E+02
  13.480  0.1323E+01  0.1522E+02
  13.490  0.1291E+01  0.1524E+02
  13.500  0.1258E+01  0.1525E+02
  13.510  0.1225E+01  0.1526E+02
  13.520  0.1193E+01  0.1527E+02
  13.530  0.1162E+01  0.1528E+02
  13.540  0.1133E+01  0.1530E+02
  13.550  0.1104E+01  0.1531E+02
  13.560  0.1077E+01  0.1532E+02
  13.570  0.1052E+01  0.1533E+02
  13.580  0.1028E+01  0.1534E+02
  13.590  0.1005E+01  0.1535E+02
  13.600  0.9838E+00  0.1536E+02
  13.610  0.9636E+00  0.1537E+02
  13.620  0.9445E+00  0.1538E+02
  13.630  0.9264E+00  0.1539E+02
  13.640  0.9091E+00  0.1540E+02
  13.650  0.8926E+00  0.1540E+02
  13.660  0.8768E+00  0.1541E+02
  13.670  0.8616E+00  0.1542E+02
  13.680  0.8471E+00  0.1543E+02
  13.690  0.8330E+00  0.1544E+02
  13.700  0.8195E+00  0.1545E+02
  13.710  0.8065E+00  0.1545E+02
  13.720  0.7940E+00  0.1546E+02
  13.730  0.7822E+00  0.1547E+02
  13.740  0.7710E+00  0.1548E+02
  13.750  0.7606E+00  0.1549E+02
  13.760  0.7511E+00  0.1549E+02
  13.770  0.7427E+00  0.1550E+02
  13.780  0.7356E+00  0.1551E+02
  13.790  0.7300E+00  0.1552E+02
  13.800  0.7262E+00  0.1552E+02
  13.810  0.7242E+00  0.1553E+02
  13.820  0.7244E+00  0.1554E+02
  13.830  0.7268E+00  0.1554E+02
  13.840  0.7315E+00  0.1555E+02
  13.850  0.7385E+00  0.1556E+02
  13.860  0.7479E+00  0.1557E+02
  13.870  0.7594E+00  0.1557E+02
  13.880  0.7729E+00  0.1558E+02
  13.890  0.7882E+00  0.1559E+02
  13.900  0.8050E+00  0.1560E+02
  13.910  0.8230E+00  0.1561E+02
  13.920  0.8420E+00  0.1561E+02
  13.930  0.8617E+00  0.1562E+02
  13.940  0.8819E+00  0.1563E+02
  13.950  0.9025E+00  0.1564E+02
  13.960  0.9234E+00  0.1565E+02
  13.970  0.9444E+00  0.1566E+02
  13.980  0.9657E+00  0.1567E+02
  13.990  0.9874E+00  0.1568E+02
  14.000  0.1009E+01  0.1569E+02
  14.010  0.1032E+01  0.1570E+02
  14.020  0.1055E+01  0.1571E+02
  14.030  0.1079E+01  0.1572E+02
  14.040  0.1104E+01  0.1573E+02
  14.050  0.1130E+01  0.1574E+02
  14.060  0.1156E+01  0.1575E+02
  14.070  0.1184E+01  0.1577E+02
  14.080  0.1212E+01  0.1578E+02
  14.090  0.1240E+01  0.1579E+02
  14.100  0.1269E+01  0.1580E+02
  14.110  0.1298E+01  0.1582E+02
  14.120  0.1327E+01  0.1583E+02
  14.130  0.1356E+01  0.1584E+02
  14.140  0.1385E+01  0.1586E+02
  14.150  0.1414E+01  0.1587E+02
  14.160  0.1443E+01  0.1589E+02
  14.170  0.1473E+01  0.1590E+02
  14.180  0.1503E+01  0.1592E+02
  14.190  0.1534E+01  0.1593E+02
  14.200  0.1566E+01  0.1595E+02
  14.210  0.1599E+01  0.1596E+02
  14.220  0.1634E+01  0.1598E+02
  14.230  0.1670E+01  0.1600E+02
  14.240  0.1707E+01  0.1601E+02
  14.250  0.1745E+01  0.1603E+02
  14.260  0.1784E+01  0.1605E+02
  14.270  0.1822E+01  0.1607E+02
  14.280  0.1858E+01  0.1608E+02
  14.290  0.1893E+01  0.1610E+02
  14.300  0.1925E+01  0.1612E+02
  14.310  0.1952E+01  0.1614E+02
  14.320  0.1975E+01  0.1616E+02
  14.330  0.1991E+01  0.1618E+02
  14.340  0.2000E+01  0.1620E+02
  14.350  0.2002E+01  0.1622E+02
  14.360  0.1996E+01  0.1624E+02
  14.370  0.1982E+01  0.1626E+02
  14.380  0.1960E+01  0.1628E+02
  14.390  0.1931E+01  0.1630E+02
  14.400  0.1894E+01  0.1632E+02
  14.410  0.1851E+01  0.1634E+02
  14.420  0.1802E+01  0.1636E+02
  14.430  0.1748E+01  0.1637E+02
  14.440  0.1691E+01  0.1639E+02
  14.450  0.1632E+01  0.1641E+02
  14.460  0.1571E+01  0.1642E+02
  14.470  0.1510E+01  0.1644E+02
  14.480  0.1450E+01  0.1645E+02
  14.490  0.1391E+01  0.1647E+02
  14.500  0.1333E+01  0.1648E+02
  14.510  0.1278E+01  0.1649E+02
  14.520  0.1226E+01  0.1650E+02
  14.530  0.1177E+01  0.1652E+02
  14.540  0.1132E+01  0.1653E+02
  14.550  0.1089E+01  0.1654E+02
  14.560  0.1050E+01  0.1655E+02
  14.570  0.1014E+01  0.1656E+02
  14.580  0.9802E+00  0.1657E+02
  14.590  0.9497E+00  0.1658E+02
  14.600  0.9216E+00  0.1659E+02
  14.610  0.8959E+00  0.1660E+02
  14.620  0.8722E+00  0.1661E+02
  14.630  0.8504E+00  0.1661E+02
  14.640  0.8301E+00  0.1662E+02
  14.650  0.8114E+00  0.1663E+02
  14.660  0.7940E+00  0.1664E+02
  14.670  0.7778E+00  0.1665E+02
  14.680  0.7627E+00  0.1665E+02
  14.690  0.7487E+00  0.1666E+02
  14.700  0.7358E+00  0.1667E+02
  14.710  0.7240E+00  0.1668E+02
  14.720  0.7133E+00  0.1668E+02
  14.730  0.7039E+00  0.1669E+02
  14.740  0.6958E+00  0.1670E+02
  14.750  0.6892E+00  0.1670E+02
  14.760  0.6842E+00  0.1671E+02
  14.770  0.6808E+00  0.1672E+02
  14.780  0.6792E+00  0.1672E+02
  14.790  0.6794E+00  0.1673E+02
  14.800  0.6813E+00  0.1674E+02
  14.810  0.6849E+00  0.1674E+02
  14.820  0.6902E+00  0.1675E+02
  14.830  0.6970E+00  0.1676E+02
  14.840  0.7050E+00  0.1677E+02
  14.850  0.7142E+00  0.1677E+02
  14.860  0.7242E+00  0.1678E+02
  14.870  0.7347E+00  0.1679E+02
  14.880  0.7456E+00  0.1679E+02
  14.890  0.7566E+00  0.1680E+02
  14.900  0.7674E+00  0.1681E+02
  14.910  0.7780E+00  0.1682E+02
  14.920  0.7881E+00  0.1683E+02
  14.930  0.7978E+00  0.1683E+02
  14.940  0.8070E+00  0.1684E+02
  14.950  0.8158E+00  0.1685E+02
  14.960  0.8243E+00  0.1686E+02
  14.970  0.8327E+00  0.1687E+02
  14.980  0.8412E+00  0.1688E+02
  14.990  0.8501E+00  0.1688E+02
  15.000  0.8598E+00  0.1689E+02
  15.010  0.8706E+00  0.1690E+02
  15.020  0.8831E+00  0.1691E+02
  15.030  0.8975E+00  0.1692E+02
  15.040  0.9144E+00  0.1693E+02
  15.050  0.9341E+00  0.1694E+02
  15.060  0.9571E+00  0.1695E+02
  15.070  0.9838E+00  0.1696E+02
  15.080  0.1014E+01  0.1697E+02
  15.090  0.1049E+01  0.1698E+02
  15.100  0.1088E+01  0.1699E+02
  15.110  0.1132E+01  0.1700E+02
  15.120  0.1180E+01  0.1701E+02
  15.130  0.1232E+01  0.1702E+02
  15.140  0.1288E+01  0.1704E+02
  15.150  0.1348E+01  0.1705E+02
  15.160  0.1411E+01  0.1706E+02
  15.170  0.1477E+01  0.1708E+02
  15.180  0.1545E+01  0.1709E+02
  15.190  0.1614E+01  0.1711E+02
  15.200  0.1683E+01  0.1713E+02
  15.210  0.1752E+01  0.1714E+02
  15.220  0.1819E+01  0.1716E+02
  15.230  0.1883E+01  0.1718E+02
  15.240  0.1943E+01  0.1720E+02
  15.250  0.1999E+01  0.1722E+02
  15.260  0.2048E+01  0.1724E+02
  15.270  0.2090E+01  0.1726E+02
  15.280  0.2123E+01  0.1728E+02
  15.290  0.2148E+01  0.1731E+02
  15.300  0.2163E+01  0.1733E+02
  15.310  0.2167E+01  0.1735E+02
  15.320  0.2161E+01  0.1737E+02
  15.330  0.2144E+01  0.1739E+02
  15.340  0.2117E+01  0.1741E+02
  15.350  0.2079E+01  0.1743E+02
  15.360  0.2032E+01  0.1745E+02
  15.370  0.1976E+01  0.1747E+02
  15.380  0.1912E+01  0.1749E+02
  15.390  0.1843E+01  0.1751E+02
  15.400  0.1768E+01  0.1753E+02
  15.410  0.1691E+01  0.1755E+02
  15.420  0.1611E+01  0.1756E+02
  15.430  0.1532E+01  0.1758E+02
  15.440  0.1453E+01  0.1759E+02
  15.450  0.1377E+01  0.1761E+02
  15.460  0.1305E+01  0.1762E+02
  15.470  0.1238E+01  0.1763E+02
  15.480  0.1176E+01  0.1764E+02
  15.490  0.1121E+01  0.1765E+02
  15.500  0.1072E+01  0.1766E+02
  15.510  0.1031E+01  0.1767E+02
  15.520  0.9963E+00  0.1768E+02
  15.530  0.9689E+00  0.1769E+02
  15.540  0.9481E+00  0.1770E+02
  15.550  0.9335E+00  0.1771E+02
  15.560  0.9247E+00  0.1772E+02
  15.570  0.9209E+00  0.1773E+02
  15.580  0.9215E+00  0.1774E+02
  15.590  0.9256E+00  0.1775E+02
  15.600  0.9327E+00  0.1776E+02
  15.610  0.9418E+00  0.1777E+02
  15.620  0.9524E+00  0.1778E+02
  15.630  0.9638E+00  0.1779E+02
  15.640  0.9754E+00  0.1780E+02
  15.650  0.9869E+00  0.1781E+02
  15.660  0.9977E+00  0.1782E+02
  15.670  0.1008E+01  0.1783E+02
  15.680  0.1017E+01  0.1784E+02
  15.690  0.1025E+01  0.1785E+02
  15.700  0.1032E+01  0.1786E+02
  15.710  0.1038E+01  0.1787E+02
  15.720  0.1044E+01  0.1788E+02
  15.730  0.1049E+01  0.1789E+02
  15.740  0.1054E+01  0.1790E+02
  15.750  0.1059E+01  0.1791E+02
  15.760  0.1064E+01  0.1792E+02
  15.770  0.1069E+01  0.1793E+02
  15.780  0.1075E+01  0.1794E+02
  15.790  0.1081E+01  0.1795E+02
  15.800  0.1087E+01  0.1796E+02
  15.810  0.1094E+01  0.1798E+02
  15.820  0.1100E+01  0.1799E+02
  15.830  0.1107E+01  0.1800E+02
  15.840  0.1115E+01  0.1801E+02
  15.850  0.1122E+01  0.1802E+02
  15.860  0.1129E+01  0.1803E+02
  15.870  0.1135E+01  0.1804E+02
  15.880  0.1142E+01  0.1805E+02
  15.890  0.1149E+01  0.1807E+02
  15.900  0.1156E+01  0.1808E+02
  15.910  0.1162E+01  0.1809E+02
  15.920  0.1170E+01  0.1810E+02
  15.930  0.1177E+01  0.1811E+02
  15.940  0.1185E+01  0.1812E+02
  15.950  0.1194E+01  0.1814E+02
  15.960  0.1203E+01  0.1815E+02
  15.970  0.1213E+01  0.1816E+02
  15.980  0.1224E+01  0.1817E+02
  15.990  0.1234E+01  0.1818E+02
  16.000  0.1246E+01  0.1820E+02
  16.010  0.1257E+01  0.1821E+02
  16.020  0.1269E+01  0.1822E+02
  16.030  0.1280E+01  0.1824E+02
  16.040  0.1292E+01  0.1825E+02
  16.050  0.1304E+01  0.1826E+02
  16.060  0.1316E+01  0.1827E+02
  16.070  0.1328E+01  0.1829E+02
  16.080  0.1341E+01  0.1830E+02
  16.090  0.1354E+01  0.1831E+02
  16.100  0.1367E+01  0.1833E+02
  16.110  0.1382E+01  0.1834E+02
  16.120  0.1398E+01  0.1836E+02
  16.130  0.1416E+01  0.1837E+02
  16.140  0.1435E+01  0.1838E+02
  16.150  0.1456E+01  0.1840E+02
  16.160  0.1478E+01  0.1841E+02
  16.170  0.1502E+01  0.1843E+02
  16.180  0.1528E+01  0.1844E+02
  16.190  0.1555E+01  0.1846E+02
  16.200  0.1583E+01  0.1848E+02
  16.210  0.1611E+01  0.1849E+02
  16.220  0.1639E+01  0.1851E+02
  16.230  0.1666E+01  0.1852E+02
  16.240  0.1693E+01  0.1854E+02
  16.250  0.1718E+01  0.1856E+02
  16.260  0.1740E+01  0.1858E+02
  16.270  0.1760E+01  0.1859E+02
  16.280  0.1776E+01  0.1861E+02
  16.290  0.1788E+01  0.1863E+02
  16.300  0.1796E+01  0.1865E+02
  16.310  0.1799E+01  0.1867E+02
  16.320  0.1798E+01  0.1868E+02
  16.330  0.1791E+01  0.1870E+02
  16.340  0.1780E+01  0.1872E+02
  16.350  0.1764E+01  0.1874E+02
  16.360  0.1744E+01  0.1875E+02
  16.370  0.1720E+01  0.1877E+02
  16.380  0.1692E+01  0.1879E+02
  16.390  0.1662E+01  0.1881E+02
  16.400  0.1629E+01  0.1882E+02
  16.410  0.1595E+01  0.1884E+02
  16.420  0.1561E+01  0.1885E+02
  16.430  0.1526E+01  0.1887E+02
  16.440  0.1491E+01  0.1888E+02
  16.450  0.1457E+01  0.1890E+02
  16.460  0.1424E+01  0.1891E+02
  16.470  0.1392E+01  0.1893E+02
  16.480  0.1362E+01  0.1894E+02
  16.490  0.1334E+01  0.1895E+02
  16.500  0.1306E+01  0.1897E+02
  16.510  0.1281E+01  0.1898E+02
  16.520  0.1256E+01  0.1899E+02
  16.530  0.1232E+01  0.1900E+02
  16.540  0.1209E+01  0.1902E+02
  16.550  0.1187E+01  0.1903E+02
  16.560  0.1165E+01  0.1904E+02
  16.570  0.1144E+01  0.1905E+02
  16.580  0.1124E+01  0.1906E+02
  16.590  0.1104E+01  0.1907E+02
  16.600  0.1086E+01  0.1908E+02
  16.610  0.1068E+01  0.1909E+02
  16.620  0.1051E+01  0.1911E+02
  16.630  0.1036E+01  0.1912E+02
  16.640  0.1023E+01  0.1913E+02
  16.650  0.1011E+01  0.1914E+02
  16.660  0.1002E+01  0.1915E+02
  16.670  0.9938E+00  0.1916E+02
  16.680  0.9877E+00  0.1917E+02
  16.690  0.9834E+00  0.1918E+02
  16.700  0.9806E+00  0.1919E+02
  16.710  0.9792E+00  0.1919E+02
  16.720  0.9788E+00  0.1920E+02
  16.730  0.9792E+00  0.1921E+02
  16.740  0.9802E+00  0.1922E+02
  16.750  0.9816E+00  0.1923E+02
  16.760  0.9833E+00  0.1924E+02
  16.770  0.9851E+00  0.1925E+02
  16.780  0.9870E+00  0.1926E+02
  16.790  0.9891E+00  0.1927E+02
  16.800  0.9915E+00  0.1928E+02
  16.810  0.9943E+00  0.1929E+02
  16.820  0.9976E+00  0.1930E+02
  16.830  0.1002E+01  0.1931E+02
  16.840  0.1007E+01  0.1932E+02
  16.850  0.1013E+01  0.1933E+02
  16.860  0.1020E+01  0.1934E+02
  16.870  0.1028E+01  0.1935E+02
  16.880  0.1038E+01  0.1936E+02
  16.890  0.1049E+01  0.1938E+02
  16.900  0.1061E+01  0.1939E+02
  16.910  0.1074E+01  0.1940E+02
  16.920  0.1087E+01  0.1941E+02
  16.930  0.1101E+01  0.1942E+02
  16.940  0.1115E+01  0.1943E+02
  16.950  0.1129E+01  0.1944E+02
  16.960  0.1142E+01  0.1945E+02
  16.970  0.1154E+01  0.1946E+02
  16.980  0.1166E+01  0.1948E+02
  16.990  0.1176E+01  0.1949E+02
  17.000  0.1184E+01  0.1950E+02
  17.010  0.1192E+01  0.1951E+02
  17.020  0.1197E+01  0.1952E+02
  17.030  0.1201E+01  0.1953E+02
  17.040  0.1203E+01  0.1955E+02
  17.050  0.1203E+01  0.1956E+02
  17.060  0.1202E+01  0.1957E+02
  17.070  0.1199E+01  0.1958E+02
  17.080  0.1196E+01  0.1959E+02
  17.090  0.1191E+01  0.1961E+02
  17.100  0.1186E+01  0.1962E+02
  17.110  0.1181E+01  0.1963E+02
  17.120  0.1176E+01  0.1964E+02
  17.130  0.1172E+01  0.1965E+02
  17.140  0.1168E+01  0.1967E+02
  17.150  0.1166E+01  0.1968E+02
  17.160  0.1165E+01  0.1969E+02
  17.170  0.1166E+01  0.1970E+02
  17.180  0.1169E+01  0.1971E+02
  17.190  0.1174E+01  0.1972E+02
  17.200  0.1181E+01  0.1974E+02
  17.210  0.1191E+01  0.1975E+02
  17.220  0.1203E+01  0.1976E+02
  17.230  0.1217E+01  0.1977E+02
  17.240  0.1232E+01  0.1978E+02
  17.250  0.1249E+01  0.1980E+02
  17.260  0.1267E+01  0.1981E+02
  17.270  0.1285E+01  0.1982E+02
  17.280  0.1304E+01  0.1984E+02
  17.290  0.1324E+01  0.1985E+02
  17.300  0.1342E+01  0.1986E+02
  17.310  0.1361E+01  0.1988E+02
  17.320  0.1378E+01  0.1989E+02
  17.330  0.1395E+01  0.1990E+02
  17.340  0.1410E+01  0.1992E+02
  17.350  0.1424E+01  0.1993E+02
  17.360  0.1437E+01  0.1995E+02
  17.370  0.1450E+01  0.1996E+02
  17.380  0.1461E+01  0.1998E+02
  17.390  0.1471E+01  0.1999E+02
  17.400  0.1480E+01  0.2000E+02
  17.410  0.1488E+01  0.2002E+02
  17.420  0.1495E+01  0.2003E+02
  17.430  0.1501E+01  0.2005E+02
  17.440  0.1506E+01  0.2006E+02
  17.450  0.1510E+01  0.2008E+02
  17.460  0.1512E+01  0.2009E+02
  17.470  0.1512E+01  0.2011E+02
  17.480  0.1510E+01  0.2012E+02
  17.490  0.1505E+01  0.2014E+02
  17.500  0.1498E+01  0.2015E+02
  17.510  0.1487E+01  0.2017E+02
  17.520  0.1474E+01  0.2018E+02
  17.530  0.1457E+01  0.2020E+02
  17.540  0.1438E+01  0.2021E+02
  17.550  0.1415E+01  0.2023E+02
  17.560  0.1390E+01  0.2024E+02
  17.570  0.1362E+01  0.2026E+02
  17.580  0.1331E+01  0.2027E+02
  17.590  0.1299E+01  0.2028E+02
  17.600  0.1267E+01  0.2029E+02
  17.610  0.1233E+01  0.2031E+02
  17.620  0.1200E+01  0.2032E+02
  17.630  0.1167E+01  0.2033E+02
  17.640  0.1136E+01  0.2034E+02
  17.650  0.1106E+01  0.2035E+02
  17.660  0.1079E+01  0.2036E+02
  17.670  0.1055E+01  0.2037E+02
  17.680  0.1033E+01  0.2038E+02
  17.690  0.1015E+01  0.2039E+02
  17.700  0.1001E+01  0.2040E+02
  17.710  0.9899E+00  0.2041E+02
  17.720  0.9825E+00  0.2042E+02
  17.730  0.9784E+00  0.2043E+02
  17.740  0.9776E+00  0.2044E+02
  17.750  0.9796E+00  0.2045E+02
  17.760  0.9844E+00  0.2046E+02
  17.770  0.9915E+00  0.2047E+02
  17.780  0.1001E+01  0.2048E+02
  17.790  0.1012E+01  0.2049E+02
  17.800  0.1024E+01  0.2050E+02
  17.810  0.1037E+01  0.2051E+02
  17.820  0.1052E+01  0.2052E+02
  17.830  0.1067E+01  0.2054E+02
  17.840  0.1083E+01  0.2055E+02
  17.850  0.1098E+01  0.2056E+02
  17.860  0.1114E+01  0.2057E+02
  17.870  0.1130E+01  0.2058E+02
  17.880  0.1145E+01  0.2059E+02
  17.890  0.1160E+01  0.2060E+02
  17.900  0.1174E+01  0.2061E+02
  17.910  0.1186E+01  0.2063E+02
  17.920  0.1197E+01  0.2064E+02
  17.930  0.1206E+01  0.2065E+02
  17.940  0.1213E+01  0.2066E+02
  17.950  0.1218E+01  0.2067E+02
  17.960  0.1219E+01  0.2069E+02
  17.970  0.1217E+01  0.2070E+02
  17.980  0.1212E+01  0.2071E+02
  17.990  0.1204E+01  0.2072E+02
  18.000  0.1191E+01  0.2073E+02
  18.010  0.1176E+01  0.2075E+02
  18.020  0.1157E+01  0.2076E+02
  18.030  0.1135E+01  0.2077E+02
  18.040  0.1110E+01  0.2078E+02
  18.050  0.1084E+01  0.2079E+02
  18.060  0.1056E+01  0.2080E+02
  18.070  0.1027E+01  0.2081E+02
  18.080  0.9990E+00  0.2082E+02
  18.090  0.9718E+00  0.2083E+02
  18.100  0.9466E+00  0.2084E+02
  18.110  0.9243E+00  0.2085E+02
  18.120  0.9057E+00  0.2086E+02
  18.130  0.8916E+00  0.2087E+02
  18.140  0.8827E+00  0.2088E+02
  18.150  0.8795E+00  0.2089E+02
  18.160  0.8824E+00  0.2090E+02
  18.170  0.8916E+00  0.2090E+02
  18.180  0.9072E+00  0.2091E+02
  18.190  0.9291E+00  0.2092E+02
  18.200  0.9569E+00  0.2093E+02
  18.210  0.9902E+00  0.2094E+02
  18.220  0.1028E+01  0.2095E+02
  18.230  0.1071E+01  0.2096E+02
  18.240  0.1117E+01  0.2097E+02
  18.250  0.1165E+01  0.2099E+02
  18.260  0.1215E+01  0.2100E+02
  18.270  0.1267E+01  0.2101E+02
  18.280  0.1318E+01  0.2102E+02
  18.290  0.1369E+01  0.2104E+02
  18.300  0.1419E+01  0.2105E+02
  18.310  0.1468E+01  0.2107E+02
  18.320  0.1515E+01  0.2108E+02
  18.330  0.1560E+01  0.2110E+02
  18.340  0.1603E+01  0.2111E+02
  18.350  0.1644E+01  0.2113E+02
  18.360  0.1683E+01  0.2115E+02
  18.370  0.1720E+01  0.2116E+02
  18.380  0.1755E+01  0.2118E+02
  18.390  0.1788E+01  0.2120E+02
  18.400  0.1819E+01  0.2122E+02
  18.410  0.1849E+01  0.2124E+02
  18.420  0.1876E+01  0.2125E+02
  18.430  0.1902E+01  0.2127E+02
  18.440  0.1925E+01  0.2129E+02
  18.450  0.1946E+01  0.2131E+02
  18.460  0.1964E+01  0.2133E+02
  18.470  0.1978E+01  0.2135E+02
  18.480  0.1989E+01  0.2137E+02
  18.490  0.1996E+01  0.2139E+02
  18.500  0.1998E+01  0.2141E+02
  18.510  0.1995E+01  0.2143E+02
  18.520  0.1987E+01  0.2145E+02
  18.530  0.1974E+01  0.2147E+02
  18.540  0.1956E+01  0.2149E+02
  18.550  0.1933E+01  0.2151E+02
  18.560  0.1905E+01  0.2153E+02
  18.570  0.1872E+01  0.2155E+02
  18.580  0.1836E+01  0.2157E+02
  18.590  0.1796E+01  0.2158E+02
  18.600  0.1753E+01  0.2160E+02
  18.610  0.1707E+01  0.2162E+02
  18.620  0.1661E+01  0.2164E+02
  18.630  0.1613E+01  0.2165E+02
  18.640  0.1565E+01  0.2167E+02
  18.650  0.1518E+01  0.2168E+02
  18.660  0.1472E+01  0.2170E+02
  18.670  0.1428E+01  0.2171E+02
  18.680  0.1386E+01  0.2172E+02
  18.690  0.1346E+01  0.2174E+02
  18.700  0.1308E+01  0.2175E+02
  18.710  0.1274E+01  0.2176E+02
  18.720  0.1242E+01  0.2178E+02
  18.730  0.1213E+01  0.2179E+02
  18.740  0.1186E+01  0.2180E+02
  18.750  0.1163E+01  0.2181E+02
  18.760  0.1141E+01  0.2182E+02
  18.770  0.1123E+01  0.2183E+02
  18.780  0.1106E+01  0.2185E+02
  18.790  0.1092E+01  0.2186E+02
  18.800  0.1079E+01  0.2187E+02
  18.810  0.1069E+01  0.2188E+02
  18.820  0.1061E+01  0.2189E+02
  18.830  0.1056E+01  0.2190E+02
  18.840  0.1053E+01  0.2191E+02
  18.850  0.1052E+01  0.2192E+02
  18.860  0.1054E+01  0.2193E+02
  18.870  0.1059E+01  0.2194E+02
  18.880  0.1067E+01  0.2195E+02
  18.890  0.1077E+01  0.2196E+02
  18.900  0.1091E+01  0.2197E+02
  18.910  0.1107E+01  0.2199E+02
  18.920  0.1126E+01  0.2200E+02
  18.930  0.1148E+01  0.2201E+02
  18.940  0.1173E+01  0.2202E+02
  18.950  0.1200E+01  0.2203E+02
  18.960  0.1229E+01  0.2204E+02
  18.970  0.1259E+01  0.2206E+02
  18.980  0.1291E+01  0.2207E+02
  18.990  0.1324E+01  0.2208E+02
  19.000  0.1358E+01  0.2210E+02
  19.010  0.1391E+01  0.2211E+02
  19.020  0.1425E+01  0.2212E+02
  19.030  0.1457E+01  0.2214E+02
  19.040  0.1488E+01  0.2215E+02
  19.050  0.1517E+01  0.2217E+02
  19.060  0.1544E+01  0.2218E+02
  19.070  0.1568E+01  0.2220E+02
  19.080  0.1589E+01  0.2222E+02
  19.090  0.1607E+01  0.2223E+02
  19.100  0.1622E+01  0.2225E+02
  19.110  0.1633E+01  0.2226E+02
  19.120  0.1641E+01  0.2228E+02
  19.130  0.1647E+01  0.2230E+02
  19.140  0.1649E+01  0.2231E+02
  19.150  0.1649E+01  0.2233E+02
  19.160  0.1648E+01  0.2235E+02
  19.170  0.1645E+01  0.2236E+02
  19.180  0.1642E+01  0.2238E+02
  19.190  0.1638E+01  0.2240E+02
  19.200  0.1636E+01  0.2241E+02
  19.210  0.1634E+01  0.2243E+02
  19.220  0.1634E+01  0.2245E+02
  19.230  0.1635E+01  0.2246E+02
  19.240  0.1639E+01  0.2248E+02
  19.250  0.1644E+01  0.2249E+02
  19.260  0.1652E+01  0.2251E+02
  19.270  0.1661E+01  0.2253E+02
  19.280  0.1672E+01  0.2254E+02
  19.290  0.1685E+01  0.2256E+02
  19.300  0.1698E+01  0.2258E+02
  19.310  0.1712E+01  0.2260E+02
  19.320  0.1726E+01  0.2261E+02
  19.330  0.1740E+01  0.2263E+02
  19.340  0.1753E+01  0.2265E+02
  19.350  0.1765E+01  0.2267E+02
  19.360  0.1775E+01  0.2268E+02
  19.370  0.1784E+01  0.2270E+02
  19.380  0.1790E+01  0.2272E+02
  19.390  0.1795E+01  0.2274E+02
  19.400  0.1797E+01  0.2275E+02
  19.410  0.1796E+01  0.2277E+02
  19.420  0.1793E+01  0.2279E+02
  19.430  0.1787E+01  0.2281E+02
  19.440  0.1779E+01  0.2283E+02
  19.450  0.1769E+01  0.2284E+02
  19.460  0.1757E+01  0.2286E+02
  19.470  0.1743E+01  0.2288E+02
  19.480  0.1727E+01  0.2290E+02
  19.490  0.1710E+01  0.2291E+02
  19.500  0.1692E+01  0.2293E+02
  19.510  0.1673E+01  0.2295E+02
  19.520  0.1653E+01  0.2296E+02
  19.530  0.1634E+01  0.2298E+02
  19.540  0.1614E+01  0.2300E+02
  19.550  0.1595E+01  0.2301E+02
  19.560  0.1576E+01  0.2303E+02
  19.570  0.1557E+01  0.2304E+02
  19.580  0.1540E+01  0.2306E+02
  19.590  0.1522E+01  0.2307E+02
  19.600  0.1506E+01  0.2309E+02
  19.610  0.1491E+01  0.2310E+02
  19.620  0.1476E+01  0.2312E+02
  19.630  0.1461E+01  0.2313E+02
  19.640  0.1447E+01  0.2315E+02
  19.650  0.1434E+01  0.2316E+02
  19.660  0.1421E+01  0.2318E+02
  19.670  0.1409E+01  0.2319E+02
  19.680  0.1397E+01  0.2320E+02
  19.690  0.1386E+01  0.2322E+02
  19.700  0.1375E+01  0.2323E+02
  19.710  0.1364E+01  0.2325E+02
  19.720  0.1354E+01  0.2326E+02
  19.730  0.1344E+01  0.2327E+02
  19.740  0.1335E+01  0.2329E+02
  19.750  0.1327E+01  0.2330E+02
  19.760  0.1320E+01  0.2331E+02
  19.770  0.1314E+01  0.2333E+02
  19.780  0.1308E+01  0.2334E+02
  19.790  0.1304E+01  0.2335E+02
  19.800  0.1300E+01  0.2336E+02
  19.810  0.1298E+01  0.2338E+02
  19.820  0.1297E+01  0.2339E+02
  19.830  0.1296E+01  0.2340E+02
  19.840  0.1297E+01  0.2342E+02
  19.850  0.1299E+01  0.2343E+02
  19.860  0.1301E+01  0.2344E+02
  19.870  0.1304E+01  0.2346E+02
  19.880  0.1308E+01  0.2347E+02
  19.890  0.1311E+01  0.2348E+02
  19.900  0.1314E+01  0.2349E+02
  19.910  0.1317E+01  0.2351E+02
  19.920  0.1319E+01  0.2352E+02
  19.930  0.1319E+01  0.2353E+02
  19.940  0.1318E+01  0.2355E+02
  19.950  0.1316E+01  0.2356E+02
  19.960  0.1311E+01  0.2357E+02
  19.970  0.1304E+01  0.2359E+02
  19.980  0.1296E+01  0.2360E+02
  19.990  0.1285E+01  0.2361E+02
  20.000  0.1272E+01  0.2363E+02
  20.010  0.1257E+01  0.2364E+02
  20.020  0.1242E+01  0.2365E+02
  20.030  0.1225E+01  0.2366E+02
  20.040  0.1208E+01  0.2367E+02
  20.050  0.1192E+01  0.2369E+02
  20.060  0.1176E+01  0.2370E+02
  20.070  0.1163E+01  0.2371E+02
  20.080  0.1151E+01  0.2372E+02
  20.090  0.1143E+01  0.2373E+02
  20.100  0.1138E+01  0.2374E+02
  20.110  0.1138E+01  0.2376E+02
  20.120  0.1142E+01  0.2377E+02
  20.130  0.1152E+01  0.2378E+02
  20.140  0.1167E+01  0.2379E+02
  20.150  0.1187E+01  0.2380E+02
  20.160  0.1213E+01  0.2381E+02
  20.170  0.1245E+01  0.2383E+02
  20.180  0.1283E+01  0.2384E+02
  20.190  0.1326E+01  0.2385E+02
  20.200  0.1373E+01  0.2387E+02
  20.210  0.1426E+01  0.2388E+02
  20.220  0.1482E+01  0.2390E+02
  20.230  0.1541E+01  0.2391E+02
  20.240  0.1604E+01  0.2393E+02
  20.250  0.1668E+01  0.2394E+02
  20.260  0.1733E+01  0.2396E+02
  20.270  0.1798E+01  0.2398E+02
  20.280  0.1863E+01  0.2400E+02
  20.290  0.1925E+01  0.2402E+02
  20.300  0.1984E+01  0.2404E+02
  20.310  0.2040E+01  0.2406E+02
  20.320  0.2090E+01  0.2408E+02
  20.330  0.2135E+01  0.2410E+02
  20.340  0.2172E+01  0.2412E+02
  20.350  0.2202E+01  0.2414E+02
  20.360  0.2224E+01  0.2417E+02
  20.370  0.2237E+01  0.2419E+02
  20.380  0.2241E+01  0.2421E+02
  20.390  0.2237E+01  0.2423E+02
  20.400  0.2225E+01  0.2425E+02
  20.410  0.2204E+01  0.2428E+02
  20.420  0.2176E+01  0.2430E+02
  20.430  0.2142E+01  0.2432E+02
  20.440  0.2104E+01  0.2434E+02
  20.450  0.2061E+01  0.2436E+02
  20.460  0.2015E+01  0.2438E+02
  20.470  0.1968E+01  0.2440E+02
  20.480  0.1921E+01  0.2442E+02
  20.490  0.1875E+01  0.2444E+02
  20.500  0.1831E+01  0.2446E+02
  20.510  0.1790E+01  0.2448E+02
  20.520  0.1752E+01  0.2449E+02
  20.530  0.1719E+01  0.2451E+02
  20.540  0.1690E+01  0.2453E+02
  20.550  0.1666E+01  0.2454E+02
  20.560  0.1646E+01  0.2456E+02
  20.570  0.1631E+01  0.2458E+02
  20.580  0.1620E+01  0.2459E+02
  20.590  0.1612E+01  0.2461E+02
  20.600  0.1607E+01  0.2462E+02
  20.610  0.1606E+01  0.2464E+02
  20.620  0.1605E+01  0.2466E+02
  20.630  0.1607E+01  0.2467E+02
  20.640  0.1609E+01  0.2469E+02
  20.650  0.1611E+01  0.2471E+02
  20.660  0.1613E+01  0.2472E+02
  20.670  0.1614E+01  0.2474E+02
  20.680  0.1614E+01  0.2475E+02
  20.690  0.1613E+01  0.2477E+02
  20.700  0.1610E+01  0.2479E+02
  20.710  0.1606E+01  0.2480E+02
  20.720  0.1601E+01  0.2482E+02
  20.730  0.1594E+01  0.2483E+02
  20.740  0.1586E+01  0.2485E+02
  20.750  0.1578E+01  0.2487E+02
  20.760  0.1569E+01  0.2488E+02
  20.770  0.1560E+01  0.2490E+02
  20.780  0.1551E+01  0.2491E+02
  20.790  0.1543E+01  0.2493E+02
  20.800  0.1537E+01  0.2494E+02
  20.810  0.1532E+01  0.2496E+02
  20.820  0.1528E+01  0.2497E+02
  20.830  0.1527E+01  0.2499E+02
  20.840  0.1528E+01  0.2500E+02
  20.850  0.1531E+01  0.2502E+02
  20.860  0.1536E+01  0.2504E+02
  20.870  0.1542E+01  0.2505E+02
  20.880  0.1551E+01  0.2507E+02
  20.890  0.1561E+01  0.2508E+02
  20.900  0.1572E+01  0.2510E+02
  20.910  0.1584E+01  0.2511E+02
  20.920  0.1595E+01  0.2513E+02
  20.930  0.1607E+01  0.2515E+02
  20.940  0.1617E+01  0.2516E+02
  20.950  0.1626E+01  0.2518E+02
  20.960  0.1633E+01  0.2519E+02
  20.970  0.1638E+01  0.2521E+02
  20.980  0.1641E+01  0.2523E+02
  20.990  0.1641E+01  0.2524E+02
  21.000  0.1638E+01  0.2526E+02
  21.010  0.1631E+01  0.2528E+02
  21.020  0.1622E+01  0.2529E+02
  21.030  0.1610E+01  0.2531E+02
  21.040  0.1596E+01  0.2532E+02
  21.050  0.1579E+01  0.2534E+02
  21.060  0.1560E+01  0.2536E+02
  21.070  0.1540E+01  0.2537E+02
  21.080  0.1519E+01  0.2539E+02
  21.090  0.1498E+01  0.2540E+02
  21.100  0.1477E+01  0.2542E+02
  21.110  0.1457E+01  0.2543E+02
  21.120  0.1438E+01  0.2544E+02
  21.130  0.1422E+01  0.2546E+02
  21.140  0.1407E+01  0.2547E+02
  21.150  0.1394E+01  0.2549E+02
  21.160  0.1384E+01  0.2550E+02
  21.170  0.1377E+01  0.2551E+02
  21.180  0.1372E+01  0.2553E+02
  21.190  0.1370E+01  0.2554E+02
  21.200  0.1369E+01  0.2556E+02
  21.210  0.1370E+01  0.2557E+02
  21.220  0.1372E+01  0.2558E+02
  21.230  0.1374E+01  0.2560E+02
  21.240  0.1376E+01  0.2561E+02
  21.250  0.1377E+01  0.2562E+02
  21.260  0.1376E+01  0.2564E+02
  21.270  0.1372E+01  0.2565E+02
  21.280  0.1366E+01  0.2567E+02
  21.290  0.1357E+01  0.2568E+02
  21.300  0.1344E+01  0.2569E+02
  21.310  0.1327E+01  0.2571E+02
  21.320  0.1307E+01  0.2572E+02
  21.330  0.1284E+01  0.2573E+02
  21.340  0.1258E+01  0.2574E+02
  21.350  0.1230E+01  0.2576E+02
  21.360  0.1201E+01  0.2577E+02
  21.370  0.1171E+01  0.2578E+02
  21.380  0.1141E+01  0.2579E+02
  21.390  0.1113E+01  0.2580E+02
  21.400  0.1087E+01  0.2581E+02
  21.410  0.1064E+01  0.2582E+02
  21.420  0.1045E+01  0.2583E+02
  21.430  0.1030E+01  0.2585E+02
  21.440  0.1020E+01  0.2586E+02
  21.450  0.1015E+01  0.2587E+02
  21.460  0.1015E+01  0.2588E+02
  21.470  0.1020E+01  0.2589E+02
  21.480  0.1029E+01  0.2590E+02
  21.490  0.1044E+01  0.2591E+02
  21.500  0.1062E+01  0.2592E+02
  21.510  0.1084E+01  0.2593E+02
  21.520  0.1109E+01  0.2594E+02
  21.530  0.1136E+01  0.2595E+02
  21.540  0.1166E+01  0.2596E+02
  21.550  0.1198E+01  0.2597E+02
  21.560  0.1231E+01  0.2599E+02
  21.570  0.1265E+01  0.2600E+02
  21.580  0.1300E+01  0.2601E+02
  21.590  0.1335E+01  0.2603E+02
  21.600  0.1371E+01  0.2604E+02
  21.610  0.1407E+01  0.2605E+02
  21.620  0.1443E+01  0.2607E+02
  21.630  0.1479E+01  0.2608E+02
  21.640  0.1515E+01  0.2610E+02
  21.650  0.1550E+01  0.2611E+02
  21.660  0.1585E+01  0.2613E+02
  21.670  0.1619E+01  0.2615E+02
  21.680  0.1651E+01  0.2616E+02
  21.690  0.1682E+01  0.2618E+02
  21.700  0.1711E+01  0.2620E+02
  21.710  0.1739E+01  0.2621E+02
  21.720  0.1764E+01  0.2623E+02
  21.730  0.1787E+01  0.2625E+02
  21.740  0.1808E+01  0.2627E+02
  21.750  0.1827E+01  0.2628E+02
  21.760  0.1843E+01  0.2630E+02
  21.770  0.1857E+01  0.2632E+02
  21.780  0.1869E+01  0.2634E+02
  21.790  0.1880E+01  0.2636E+02
  21.800  0.1889E+01  0.2638E+02
  21.810  0.1896E+01  0.2640E+02
  21.820  0.1902E+01  0.2642E+02
  21.830  0.1907E+01  0.2644E+02
  21.840  0.1911E+01  0.2645E+02
  21.850  0.1913E+01  0.2647E+02
  21.860  0.1914E+01  0.2649E+02
  21.870  0.1912E+01  0.2651E+02
  21.880  0.1909E+01  0.2653E+02
  21.890  0.1902E+01  0.2655E+02
  21.900  0.1892E+01  0.2657E+02
  21.910  0.1877E+01  0.2659E+02
  21.920  0.1859E+01  0.2661E+02
  21.930  0.1835E+01  0.2662E+02
  21.940  0.1806E+01  0.2664E+02
  21.950  0.1773E+01  0.2666E+02
  21.960  0.1734E+01  0.2668E+02
  21.970  0.1690E+01  0.2669E+02
  21.980  0.1643E+01  0.2671E+02
  21.990  0.1592E+01  0.2673E+02
  22.000  0.1538E+01  0.2674E+02
  22.010  0.1483E+01  0.2676E+02
  22.020  0.1427E+01  0.2677E+02
  22.030  0.1373E+01  0.2679E+02
  22.040  0.1320E+01  0.2680E+02
  22.050  0.1271E+01  0.2681E+02
  22.060  0.1226E+01  0.2682E+02
  22.070  0.1186E+01  0.2684E+02
  22.080  0.1152E+01  0.2685E+02
  22.090  0.1125E+01  0.2686E+02
  22.100  0.1106E+01  0.2687E+02
  22.110  0.1094E+01  0.2688E+02
  22.120  0.1090E+01  0.2689E+02
  22.130  0.1095E+01  0.2690E+02
  22.140  0.1107E+01  0.2691E+02
  22.150  0.1126E+01  0.2692E+02
  22.160  0.1153E+01  0.2694E+02
  22.170  0.1186E+01  0.2695E+02
  22.180  0.1225E+01  0.2696E+02
  22.190  0.1268E+01  0.2697E+02
  22.200  0.1316E+01  0.2699E+02
  22.210  0.1367E+01  0.2700E+02
  22.220  0.1420E+01  0.2701E+02
  22.230  0.1473E+01  0.2703E+02
  22.240  0.1527E+01  0.2704E+02
  22.250  0.1578E+01  0.2706E+02
  22.260  0.1627E+01  0.2708E+02
  22.270  0.1672E+01  0.2709E+02
  22.280  0.1712E+01  0.2711E+02
  22.290  0.1746E+01  0.2713E+02
  22.300  0.1773E+01  0.2714E+02
  22.310  0.1792E+01  0.2716E+02
  22.320  0.1804E+01  0.2718E+02
  22.330  0.1807E+01  0.2720E+02
  22.340  0.1803E+01  0.2722E+02
  22.350  0.1791E+01  0.2723E+02
  22.360  0.1772E+01  0.2725E+02
  22.370  0.1746E+01  0.2727E+02
  22.380  0.1715E+01  0.2729E+02
  22.390  0.1680E+01  0.2730E+02
  22.400  0.1641E+01  0.2732E+02
  22.410  0.1601E+01  0.2734E+02
  22.420  0.1561E+01  0.2735E+02
  22.430  0.1521E+01  0.2737E+02
  22.440  0.1482E+01  0.2738E+02
  22.450  0.1447E+01  0.2740E+02
  22.460  0.1414E+01  0.2741E+02
  22.470  0.1386E+01  0.2742E+02
  22.480  0.1362E+01  0.2744E+02
  22.490  0.1342E+01  0.2745E+02
  22.500  0.1327E+01  0.2746E+02
  22.510  0.1316E+01  0.2748E+02
  22.520  0.1309E+01  0.2749E+02
  22.530  0.1306E+01  0.2750E+02
  22.540  0.1305E+01  0.2752E+02
  22.550  0.1307E+01  0.2753E+02
  22.560  0.1311E+01  0.2754E+02
  22.570  0.1317E+01  0.2756E+02
  22.580  0.1323E+01  0.2757E+02
  22.590  0.1330E+01  0.2758E+02
  22.600  0.1337E+01  0.2760E+02
  22.610  0.1343E+01  0.2761E+02
  22.620  0.1348E+01  0.2762E+02
  22.630  0.1352E+01  0.2764E+02
  22.640  0.1354E+01  0.2765E+02
  22.650  0.1355E+01  0.2766E+02
  22.660  0.1353E+01  0.2768E+02
  22.670  0.1349E+01  0.2769E+02
  22.680  0.1343E+01  0.2770E+02
  22.690  0.1334E+01  0.2772E+02
  22.700  0.1322E+01  0.2773E+02
  22.710  0.1308E+01  0.2774E+02
  22.720  0.1291E+01  0.2776E+02
  22.730  0.1271E+01  0.2777E+02
  22.740  0.1250E+01  0.2778E+02
  22.750  0.1225E+01  0.2779E+02
  22.760  0.1199E+01  0.2781E+02
  22.770  0.1171E+01  0.2782E+02
  22.780  0.1141E+01  0.2783E+02
  22.790  0.1111E+01  0.2784E+02
  22.800  0.1079E+01  0.2785E+02
  22.810  0.1048E+01  0.2786E+02
  22.820  0.1016E+01  0.2787E+02
  22.830  0.9852E+00  0.2788E+02
  22.840  0.9553E+00  0.2789E+02
  22.850  0.9268E+00  0.2790E+02
  22.860  0.9003E+00  0.2791E+02
  22.870  0.8762E+00  0.2792E+02
  22.880  0.8549E+00  0.2793E+02
  22.890  0.8369E+00  0.2793E+02
  22.900  0.8224E+00  0.2794E+02
  22.910  0.8118E+00  0.2795E+02
  22.920  0.8053E+00  0.2796E+02
  22.930  0.8031E+00  0.2797E+02
  22.940  0.8055E+00  0.2798E+02
  22.950  0.8124E+00  0.2798E+02
  22.960  0.8240E+00  0.2799E+02
  22.970  0.8402E+00  0.2800E+02
  22.980  0.8610E+00  0.2801E+02
  22.990  0.8862E+00  0.2802E+02
  23.000  0.9157E+00  0.2803E+02
  23.010  0.9493E+00  0.2804E+02
  23.020  0.9868E+00  0.2805E+02
  23.030  0.1028E+01  0.2806E+02
  23.040  0.1072E+01  0.2807E+02
  23.050  0.1119E+01  0.2808E+02
  23.060  0.1169E+01  0.2809E+02
  23.070  0.1221E+01  0.2810E+02
  23.080  0.1274E+01  0.2812E+02
  23.090  0.1329E+01  0.2813E+02
  23.100  0.1384E+01  0.2814E+02
  23.110  0.1439E+01  0.2816E+02
  23.120  0.1493E+01  0.2817E+02
  23.130  0.1546E+01  0.2819E+02
  23.140  0.1597E+01  0.2820E+02
  23.150  0.1645E+01  0.2822E+02
  23.160  0.1689E+01  0.2824E+02
  23.170  0.1730E+01  0.2825E+02
  23.180  0.1765E+01  0.2827E+02
  23.190  0.1795E+01  0.2829E+02
  23.200  0.1820E+01  0.2831E+02
  23.210  0.1838E+01  0.2833E+02
  23.220  0.1849E+01  0.2834E+02
  23.230  0.1854E+01  0.2836E+02
  23.240  0.1853E+01  0.2838E+02
  23.250  0.1845E+01  0.2840E+02
  23.260  0.1832E+01  0.2842E+02
  23.270  0.1814E+01  0.2844E+02
  23.280  0.1791E+01  0.2845E+02
  23.290  0.1766E+01  0.2847E+02
  23.300  0.1738E+01  0.2849E+02
  23.310  0.1709E+01  0.2851E+02
  23.320  0.1680E+01  0.2852E+02
  23.330  0.1653E+01  0.2854E+02
  23.340  0.1627E+01  0.2856E+02
  23.350  0.1605E+01  0.2857E+02
  23.360  0.1587E+01  0.2859E+02
  23.370  0.1572E+01  0.2860E+02
  23.380  0.1563E+01  0.2862E+02
  23.390  0.1558E+01  0.2863E+02
  23.400  0.1558E+01  0.2865E+02
  23.410  0.1563E+01  0.2867E+02
  23.420  0.1572E+01  0.2868E+02
  23.430  0.1585E+01  0.2870E+02
  23.440  0.1600E+01  0.2871E+02
  23.450  0.1617E+01  0.2873E+02
  23.460  0.1636E+01  0.2875E+02
  23.470  0.1656E+01  0.2876E+02
  23.480  0.1676E+01  0.2878E+02
  23.490  0.1694E+01  0.2880E+02
  23.500  0.1712E+01  0.2881E+02
  23.510  0.1727E+01  0.2883E+02
  23.520  0.1740E+01  0.2885E+02
  23.530  0.1750E+01  0.2887E+02
  23.540  0.1756E+01  0.2888E+02
  23.550  0.1760E+01  0.2890E+02
  23.560  0.1759E+01  0.2892E+02
  23.570  0.1755E+01  0.2894E+02
  23.580  0.1748E+01  0.2895E+02
  23.590  0.1737E+01  0.2897E+02
  23.600  0.1723E+01  0.2899E+02
  23.610  0.1706E+01  0.2901E+02
  23.620  0.1687E+01  0.2902E+02
  23.630  0.1666E+01  0.2904E+02
  23.640  0.1644E+01  0.2905E+02
  23.650  0.1621E+01  0.2907E+02
  23.660  0.1598E+01  0.2909E+02
  23.670  0.1576E+01  0.2910E+02
  23.680  0.1555E+01  0.2912E+02
  23.690  0.1535E+01  0.2913E+02
  23.700  0.1518E+01  0.2915E+02
  23.710  0.1503E+01  0.2916E+02
  23.720  0.1491E+01  0.2918E+02
  23.730  0.1481E+01  0.2919E+02
  23.740  0.1474E+01  0.2921E+02
  23.750  0.1468E+01  0.2922E+02
  23.760  0.1464E+01  0.2924E+02
  23.770  0.1462E+01  0.2925E+02
  23.780  0.1460E+01  0.2927E+02
  23.790  0.1458E+01  0.2928E+02
  23.800  0.1456E+01  0.2930E+02
  23.810  0.1453E+01  0.2931E+02
  23.820  0.1449E+01  0.2933E+02
  23.830  0.1443E+01  0.2934E+02
  23.840  0.1436E+01  0.2935E+02
  23.850  0.1426E+01  0.2937E+02
  23.860  0.1415E+01  0.2938E+02
  23.870  0.1403E+01  0.2940E+02
  23.880  0.1389E+01  0.2941E+02
  23.890  0.1374E+01  0.2942E+02
  23.900  0.1358E+01  0.2944E+02
  23.910  0.1342E+01  0.2945E+02
  23.920  0.1327E+01  0.2946E+02
  23.930  0.1311E+01  0.2948E+02
  23.940  0.1296E+01  0.2949E+02
  23.950  0.1281E+01  0.2950E+02
  23.960  0.1268E+01  0.2952E+02
  23.970  0.1255E+01  0.2953E+02
  23.980  0.1243E+01  0.2954E+02
  23.990  0.1232E+01  0.2955E+02
  24.000  0.1222E+01  0.2957E+02
  24.010  0.1213E+01  0.2958E+02
  24.020  0.1205E+01  0.2959E+02
  24.030  0.1197E+01  0.2960E+02
  24.040  0.1191E+01  0.2961E+02
  24.050  0.1186E+01  0.2963E+02
  24.060  0.1182E+01  0.2964E+02
  24.070  0.1179E+01  0.2965E+02
  24.080  0.1177E+01  0.2966E+02
  24.090  0.1177E+01  0.2967E+02
  24.100  0.1179E+01  0.2968E+02
  24.110  0.1182E+01  0.2970E+02
  24.120  0.1186E+01  0.2971E+02
  24.130  0.1193E+01  0.2972E+02
  24.140  0.1201E+01  0.2973E+02
  24.150  0.1210E+01  0.2974E+02
  24.160  0.1221E+01  0.2976E+02
  24.170  0.1233E+01  0.2977E+02
  24.180  0.1246E+01  0.2978E+02
  24.190  0.1260E+01  0.2979E+02
  24.200  0.1274E+01  0.2981E+02
  24.210  0.1290E+01  0.2982E+02
  24.220  0.1306E+01  0.2983E+02
  24.230  0.1322E+01  0.2985E+02
  24.240  0.1339E+01  0.2986E+02
  24.250  0.1357E+01  0.2987E+02
  24.260  0.1376E+01  0.2989E+02
  24.270  0.1395E+01  0.2990E+02
  24.280  0.1415E+01  0.2991E+02
  24.290  0.1437E+01  0.2993E+02
  24.300  0.1459E+01  0.2994E+02
  24.310  0.1484E+01  0.2996E+02
  24.320  0.1510E+01  0.2997E+02
  24.330  0.1538E+01  0.2999E+02
  24.340  0.1569E+01  0.3000E+02
  24.350  0.1601E+01  0.3002E+02
  24.360  0.1636E+01  0.3004E+02
  24.370  0.1673E+01  0.3005E+02
  24.380  0.1712E+01  0.3007E+02
  24.390  0.1753E+01  0.3009E+02
  24.400  0.1795E+01  0.3011E+02
  24.410  0.1838E+01  0.3012E+02
  24.420  0.1882E+01  0.3014E+02
  24.430  0.1926E+01  0.3016E+02
  24.440  0.1969E+01  0.3018E+02
  24.450  0.2010E+01  0.3020E+02
  24.460  0.2049E+01  0.3022E+02
  24.470  0.2086E+01  0.3024E+02
  24.480  0.2119E+01  0.3026E+02
  24.490  0.2147E+01  0.3029E+02
  24.500  0.2172E+01  0.3031E+02
  24.510  0.2191E+01  0.3033E+02
  24.520  0.2205E+01  0.3035E+02
  24.530  0.2213E+01  0.3037E+02
  24.540  0.2217E+01  0.3040E+02
  24.550  0.2215E+01  0.3042E+02
  24.560  0.2208E+01  0.3044E+02
  24.570  0.2196E+01  0.3046E+02
  24.580  0.2181E+01  0.3048E+02
  24.590  0.2162E+01  0.3051E+02
  24.600  0.2140E+01  0.3053E+02
  24.610  0.2115E+01  0.3055E+02
  24.620  0.2088E+01  0.3057E+02
  24.630  0.2059E+01  0.3059E+02
  24.640  0.2030E+01  0.3061E+02
  24.650  0.1999E+01  0.3063E+02
  24.660  0.1969E+01  0.3065E+02
  24.670  0.1938E+01  0.3067E+02
  24.680  0.1907E+01  0.3069E+02
  24.690  0.1877E+01  0.3071E+02
  24.700  0.1848E+01  0.3073E+02
  24.710  0.1820E+01  0.3074E+02
  24.720  0.1792E+01  0.3076E+02
  24.730  0.1766E+01  0.3078E+02
  24.740  0.1741E+01  0.3080E+02
  24.750  0.1717E+01  0.3081E+02
  24.760  0.1695E+01  0.3083E+02
  24.770  0.1674E+01  0.3085E+02
  24.780  0.1655E+01  0.3086E+02
  24.790  0.1637E+01  0.3088E+02
  24.800  0.1621E+01  0.3090E+02
  24.810  0.1606E+01  0.3091E+02
  24.820  0.1593E+01  0.3093E+02
  24.830  0.1581E+01  0.3094E+02
  24.840  0.1570E+01  0.3096E+02
  24.850  0.1561E+01  0.3098E+02
  24.860  0.1553E+01  0.3099E+02
  24.870  0.1547E+01  0.3101E+02
  24.880  0.1542E+01  0.3102E+02
  24.890  0.1538E+01  0.3104E+02
  24.900  0.1536E+01  0.3105E+02
  24.910  0.1535E+01  0.3107E+02
  24.920  0.1536E+01  0.3108E+02
  24.930  0.1538E+01  0.3110E+02
  24.940  0.1542E+01  0.3111E+02
  24.950  0.1547E+01  0.3113E+02
  24.960  0.1554E+01  0.3115E+02
  24.970  0.1561E+01  0.3116E+02
  24.980  0.1569E+01  0.3118E+02
  24.990  0.1578E+01  0.3119E+02
  25.000  0.1586E+01  0.3121E+02
  25.010  0.1594E+01  0.3122E+02
  25.020  0.1602E+01  0.3124E+02
  25.030  0.1607E+01  0.3126E+02
  25.040  0.1611E+01  0.3127E+02
  25.050  0.1613E+01  0.3129E+02
  25.060  0.1613E+01  0.3130E+02
  25.070  0.1611E+01  0.3132E+02
  25.080  0.1607E+01  0.3134E+02
  25.090  0.1601E+01  0.3135E+02
  25.100  0.1594E+01  0.3137E+02
  25.110  0.1587E+01  0.3138E+02
  25.120  0.1580E+01  0.3140E+02
  25.130  0.1574E+01  0.3142E+02
  25.140  0.1570E+01  0.3143E+02
  25.150  0.1568E+01  0.3145E+02
  25.160  0.1570E+01  0.3146E+02
  25.170  0.1576E+01  0.3148E+02
  25.180  0.1585E+01  0.3150E+02
  25.190  0.1600E+01  0.3151E+02
  25.200  0.1618E+01  0.3153E+02
  25.210  0.1641E+01  0.3154E+02
  25.220  0.1667E+01  0.3156E+02
  25.230  0.1697E+01  0.3158E+02
  25.240  0.1729E+01  0.3159E+02
  25.250  0.1763E+01  0.3161E+02
  25.260  0.1797E+01  0.3163E+02
  25.270  0.1832E+01  0.3165E+02
  25.280  0.1865E+01  0.3167E+02
  25.290  0.1897E+01  0.3169E+02
  25.300  0.1927E+01  0.3171E+02
  25.310  0.1953E+01  0.3172E+02
  25.320  0.1976E+01  0.3174E+02
  25.330  0.1996E+01  0.3176E+02
  25.340  0.2011E+01  0.3178E+02
  25.350  0.2022E+01  0.3180E+02
  25.360  0.2029E+01  0.3183E+02
  25.370  0.2032E+01  0.3185E+02
  25.380  0.2030E+01  0.3187E+02
  25.390  0.2025E+01  0.3189E+02
  25.400  0.2015E+01  0.3191E+02
  25.410  0.2002E+01  0.3193E+02
  25.420  0.1986E+01  0.3195E+02
  25.430  0.1965E+01  0.3197E+02
  25.440  0.1942E+01  0.3199E+02
  25.450  0.1916E+01  0.3200E+02
  25.460  0.1887E+01  0.3202E+02
  25.470  0.1856E+01  0.3204E+02
  25.480  0.1823E+01  0.3206E+02
  25.490  0.1789E+01  0.3208E+02
  25.500  0.1755E+01  0.3210E+02
  25.510  0.1720E+01  0.3211E+02
  25.520  0.1686E+01  0.3213E+02
  25.530  0.1654E+01  0.3215E+02
  25.540  0.1623E+01  0.3216E+02
  25.550  0.1596E+01  0.3218E+02
  25.560  0.1572E+01  0.3219E+02
  25.570  0.1552E+01  0.3221E+02
  25.580  0.1537E+01  0.3222E+02
  25.590  0.1526E+01  0.3224E+02
  25.600  0.1519E+01  0.3226E+02
  25.610  0.1518E+01  0.3227E+02
  25.620  0.1521E+01  0.3229E+02
  25.630  0.1528E+01  0.3230E+02
  25.640  0.1538E+01  0.3232E+02
  25.650  0.1552E+01  0.3233E+02
  25.660  0.1567E+01  0.3235E+02
  25.670  0.1584E+01  0.3236E+02
  25.680  0.1602E+01  0.3238E+02
  25.690  0.1620E+01  0.3240E+02
  25.700  0.1636E+01  0.3241E+02
  25.710  0.1651E+01  0.3243E+02
  25.720  0.1665E+01  0.3245E+02
  25.730  0.1676E+01  0.3246E+02
  25.740  0.1685E+01  0.3248E+02
  25.750  0.1691E+01  0.3250E+02
  25.760  0.1695E+01  0.3251E+02
  25.770  0.1697E+01  0.3253E+02
  25.780  0.1697E+01  0.3255E+02
  25.790  0.1696E+01  0.3256E+02
  25.800  0.1694E+01  0.3258E+02
  25.810  0.1691E+01  0.3260E+02
  25.820  0.1689E+01  0.3261E+02
  25.830  0.1687E+01  0.3263E+02
  25.840  0.1686E+01  0.3265E+02
  25.850  0.1686E+01  0.3266E+02
  25.860  0.1688E+01  0.3268E+02
  25.870  0.1692E+01  0.3270E+02
  25.880  0.1698E+01  0.3272E+02
  25.890  0.1706E+01  0.3273E+02
  25.900  0.1717E+01  0.3275E+02
  25.910  0.1730E+01  0.3277E+02
  25.920  0.1745E+01  0.3278E+02
  25.930  0.1763E+01  0.3280E+02
  25.940  0.1784E+01  0.3282E+02
  25.950  0.1806E+01  0.3284E+02
  25.960  0.1831E+01  0.3286E+02
  25.970  0.1858E+01  0.3287E+02
  25.980  0.1886E+01  0.3289E+02
  25.990  0.1916E+01  0.3291E+02
  26.000  0.1946E+01  0.3293E+02
  26.010  0.1978E+01  0.3295E+02
  26.020  0.2010E+01  0.3297E+02
  26.030  0.2043E+01  0.3299E+02
  26.040  0.2075E+01  0.3301E+02
  26.050  0.2106E+01  0.3303E+02
  26.060  0.2137E+01  0.3306E+02
  26.070  0.2165E+01  0.3308E+02
  26.080  0.2192E+01  0.3310E+02
  26.090  0.2217E+01  0.3312E+02
  26.100  0.2238E+01  0.3314E+02
  26.110  0.2256E+01  0.3317E+02
  26.120  0.2270E+01  0.3319E+02
  26.130  0.2280E+01  0.3321E+02
  26.140  0.2285E+01  0.3323E+02
  26.150  0.2286E+01  0.3326E+02
  26.160  0.2281E+01  0.3328E+02
  26.170  0.2271E+01  0.3330E+02
  26.180  0.2256E+01  0.3333E+02
  26.190  0.2236E+01  0.3335E+02
  26.200  0.2211E+01  0.3337E+02
  26.210  0.2182E+01  0.3339E+02
  26.220  0.2149E+01  0.3341E+02
  26.230  0.2113E+01  0.3343E+02
  26.240  0.2074E+01  0.3346E+02
  26.250  0.2034E+01  0.3348E+02
  26.260  0.1991E+01  0.3350E+02
  26.270  0.1949E+01  0.3352E+02
  26.280  0.1906E+01  0.3353E+02
  26.290  0.1864E+01  0.3355E+02
  26.300  0.1823E+01  0.3357E+02
  26.310  0.1784E+01  0.3359E+02
  26.320  0.1747E+01  0.3361E+02
  26.330  0.1711E+01  0.3362E+02
  26.340  0.1678E+01  0.3364E+02
  26.350  0.1648E+01  0.3366E+02
  26.360  0.1620E+01  0.3367E+02
  26.370  0.1595E+01  0.3369E+02
  26.380  0.1573E+01  0.3370E+02
  26.390  0.1554E+01  0.3372E+02
  26.400  0.1538E+01  0.3374E+02
  26.410  0.1525E+01  0.3375E+02
  26.420  0.1516E+01  0.3377E+02
  26.430  0.1510E+01  0.3378E+02
  26.440  0.1507E+01  0.3380E+02
  26.450  0.1507E+01  0.3381E+02
  26.460  0.1510E+01  0.3383E+02
  26.470  0.1516E+01  0.3384E+02
  26.480  0.1524E+01  0.3386E+02
  26.490  0.1534E+01  0.3387E+02
  26.500  0.1545E+01  0.3389E+02
  26.510  0.1557E+01  0.3390E+02
  26.520  0.1568E+01  0.3392E+02
  26.530  0.1580E+01  0.3393E+02
  26.540  0.1589E+01  0.3395E+02
  26.550  0.1597E+01  0.3397E+02
  26.560  0.1603E+01  0.3398E+02
  26.570  0.1605E+01  0.3400E+02
  26.580  0.1605E+01  0.3401E+02
  26.590  0.1600E+01  0.3403E+02
  26.600  0.1592E+01  0.3405E+02
  26.610  0.1580E+01  0.3406E+02
  26.620  0.1565E+01  0.3408E+02
  26.630  0.1546E+01  0.3409E+02
  26.640  0.1524E+01  0.3411E+02
  26.650  0.1499E+01  0.3412E+02
  26.660  0.1473E+01  0.3414E+02
  26.670  0.1444E+01  0.3415E+02
  26.680  0.1415E+01  0.3417E+02
  26.690  0.1385E+01  0.3418E+02
  26.700  0.1355E+01  0.3419E+02
  26.710  0.1326E+01  0.3421E+02
  26.720  0.1298E+01  0.3422E+02
  26.730  0.1272E+01  0.3423E+02
  26.740  0.1249E+01  0.3425E+02
  26.750  0.1227E+01  0.3426E+02
  26.760  0.1209E+01  0.3427E+02
  26.770  0.1192E+01  0.3428E+02
  26.780  0.1179E+01  0.3429E+02
  26.790  0.1168E+01  0.3431E+02
  26.800  0.1159E+01  0.3432E+02
  26.810  0.1152E+01  0.3433E+02
  26.820  0.1146E+01  0.3434E+02
  26.830  0.1142E+01  0.3435E+02
  26.840  0.1138E+01  0.3436E+02
  26.850  0.1135E+01  0.3437E+02
  26.860  0.1132E+01  0.3439E+02
  26.870  0.1129E+01  0.3440E+02
  26.880  0.1125E+01  0.3441E+02
  26.890  0.1121E+01  0.3442E+02
  26.900  0.1116E+01  0.3443E+02
  26.910  0.1111E+01  0.3444E+02
  26.920  0.1105E+01  0.3445E+02
  26.930  0.1099E+01  0.3446E+02
  26.940  0.1094E+01  0.3447E+02
  26.950  0.1089E+01  0.3449E+02
  26.960  0.1085E+01  0.3450E+02
  26.970  0.1082E+01  0.3451E+02
  26.980  0.1082E+01  0.3452E+02
  26.990  0.1083E+01  0.3453E+02
  27.000  0.1087E+01  0.3454E+02
  27.010  0.1094E+01  0.3455E+02
  27.020  0.1104E+01  0.3456E+02
  27.030  0.1118E+01  0.3457E+02
  27.040  0.1135E+01  0.3458E+02
  27.050  0.1155E+01  0.3460E+02
  27.060  0.1179E+01  0.3461E+02
  27.070  0.1205E+01  0.3462E+02
  27.080  0.1235E+01  0.3463E+02
  27.090  0.1266E+01  0.3464E+02
  27.100  0.1300E+01  0.3466E+02
  27.110  0.1335E+01  0.3467E+02
  27.120  0.1370E+01  0.3468E+02
  27.130  0.1405E+01  0.3470E+02
  27.140  0.1440E+01  0.3471E+02
  27.150  0.1474E+01  0.3473E+02
  27.160  0.1507E+01  0.3474E+02
  27.170  0.1538E+01  0.3476E+02
  27.180  0.1567E+01  0.3477E+02
  27.190  0.1594E+01  0.3479E+02
  27.200  0.1619E+01  0.3481E+02
  27.210  0.1642E+01  0.3482E+02
  27.220  0.1664E+01  0.3484E+02
  27.230  0.1684E+01  0.3486E+02
  27.240  0.1704E+01  0.3487E+02
  27.250  0.1723E+01  0.3489E+02
  27.260  0.1741E+01  0.3491E+02
  27.270  0.1760E+01  0.3493E+02
  27.280  0.1780E+01  0.3494E+02
  27.290  0.1801E+01  0.3496E+02
  27.300  0.1822E+01  0.3498E+02
  27.310  0.1844E+01  0.3500E+02
  27.320  0.1868E+01  0.3502E+02
  27.330  0.1892E+01  0.3504E+02
  27.340  0.1917E+01  0.3505E+02
  27.350  0.1942E+01  0.3507E+02
  27.360  0.1968E+01  0.3509E+02
  27.370  0.1994E+01  0.3511E+02
  27.380  0.2019E+01  0.3513E+02
  27.390  0.2044E+01  0.3515E+02
  27.400  0.2068E+01  0.3517E+02
  27.410  0.2090E+01  0.3520E+02
  27.420  0.2111E+01  0.3522E+02
  27.430  0.2131E+01  0.3524E+02
  27.440  0.2148E+01  0.3526E+02
  27.450  0.2162E+01  0.3528E+02
  27.460  0.2174E+01  0.3530E+02
  27.470  0.2184E+01  0.3532E+02
  27.480  0.2189E+01  0.3535E+02
  27.490  0.2191E+01  0.3537E+02
  27.500  0.2189E+01  0.3539E+02
  27.510  0.2183E+01  0.3541E+02
  27.520  0.2172E+01  0.3543E+02
  27.530  0.2157E+01  0.3546E+02
  27.540  0.2137E+01  0.3548E+02
  27.550  0.2112E+01  0.3550E+02
  27.560  0.2083E+01  0.3552E+02
  27.570  0.2050E+01  0.3554E+02
  27.580  0.2013E+01  0.3556E+02
  27.590  0.1973E+01  0.3558E+02
  27.600  0.1931E+01  0.3560E+02
  27.610  0.1887E+01  0.3562E+02
  27.620  0.1842E+01  0.3564E+02
  27.630  0.1797E+01  0.3565E+02
  27.640  0.1753E+01  0.3567E+02
  27.650  0.1709E+01  0.3569E+02
  27.660  0.1668E+01  0.3571E+02
  27.670  0.1628E+01  0.3572E+02
  27.680  0.1590E+01  0.3574E+02
  27.690  0.1555E+01  0.3575E+02
  27.700  0.1522E+01  0.3577E+02
  27.710  0.1492E+01  0.3578E+02
  27.720  0.1464E+01  0.3580E+02
  27.730  0.1438E+01  0.3581E+02
  27.740  0.1414E+01  0.3583E+02
  27.750  0.1391E+01  0.3584E+02
  27.760  0.1370E+01  0.3585E+02
  27.770  0.1351E+01  0.3587E+02
  27.780  0.1334E+01  0.3588E+02
  27.790  0.1319E+01  0.3589E+02
  27.800  0.1305E+01  0.3591E+02
  27.810  0.1294E+01  0.3592E+02
  27.820  0.1286E+01  0.3593E+02
  27.830  0.1281E+01  0.3595E+02
  27.840  0.1279E+01  0.3596E+02
  27.850  0.1281E+01  0.3597E+02
  27.860  0.1287E+01  0.3598E+02
  27.870  0.1297E+01  0.3600E+02
  27.880  0.1311E+01  0.3601E+02
  27.890  0.1329E+01  0.3602E+02
  27.900  0.1351E+01  0.3604E+02
  27.910  0.1376E+01  0.3605E+02
  27.920  0.1403E+01  0.3606E+02
  27.930  0.1433E+01  0.3608E+02
  27.940  0.1465E+01  0.3609E+02
  27.950  0.1497E+01  0.3611E+02
  27.960  0.1529E+01  0.3612E+02
  27.970  0.1561E+01  0.3614E+02
  27.980  0.1592E+01  0.3616E+02
  27.990  0.1621E+01  0.3617E+02
  28.000  0.1649E+01  0.3619E+02
  28.010  0.1674E+01  0.3621E+02
  28.020  0.1698E+01  0.3622E+02
  28.030  0.1720E+01  0.3624E+02
  28.040  0.1741E+01  0.3626E+02
  28.050  0.1760E+01  0.3627E+02
  28.060  0.1778E+01  0.3629E+02
  28.070  0.1797E+01  0.3631E+02
  28.080  0.1816E+01  0.3633E+02
  28.090  0.1836E+01  0.3635E+02
  28.100  0.1857E+01  0.3637E+02
  28.110  0.1880E+01  0.3638E+02
  28.120  0.1905E+01  0.3640E+02
  28.130  0.1931E+01  0.3642E+02
  28.140  0.1960E+01  0.3644E+02
  28.150  0.1989E+01  0.3646E+02
  28.160  0.2020E+01  0.3648E+02
  28.170  0.2051E+01  0.3650E+02
  28.180  0.2082E+01  0.3652E+02
  28.190  0.2111E+01  0.3654E+02
  28.200  0.2138E+01  0.3657E+02
  28.210  0.2163E+01  0.3659E+02
  28.220  0.2183E+01  0.3661E+02
  28.230  0.2199E+01  0.3663E+02
  28.240  0.2209E+01  0.3665E+02
  28.250  0.2213E+01  0.3668E+02
  28.260  0.2211E+01  0.3670E+02
  28.270  0.2202E+01  0.3672E+02
  28.280  0.2185E+01  0.3674E+02
  28.290  0.2162E+01  0.3676E+02
  28.300  0.2132E+01  0.3678E+02
  28.310  0.2096E+01  0.3681E+02
  28.320  0.2054E+01  0.3683E+02
  28.330  0.2006E+01  0.3685E+02
  28.340  0.1955E+01  0.3687E+02
  28.350  0.1900E+01  0.3688E+02
  28.360  0.1842E+01  0.3690E+02
  28.370  0.1783E+01  0.3692E+02
  28.380  0.1724E+01  0.3694E+02
  28.390  0.1667E+01  0.3695E+02
  28.400  0.1611E+01  0.3697E+02
  28.410  0.1559E+01  0.3699E+02
  28.420  0.1511E+01  0.3700E+02
  28.430  0.1469E+01  0.3702E+02
  28.440  0.1432E+01  0.3703E+02
  28.450  0.1402E+01  0.3704E+02
  28.460  0.1378E+01  0.3706E+02
  28.470  0.1361E+01  0.3707E+02
  28.480  0.1351E+01  0.3709E+02
  28.490  0.1346E+01  0.3710E+02
  28.500  0.1347E+01  0.3711E+02
  28.510  0.1352E+01  0.3713E+02
  28.520  0.1361E+01  0.3714E+02
  28.530  0.1373E+01  0.3715E+02
  28.540  0.1386E+01  0.3717E+02
  28.550  0.1399E+01  0.3718E+02
  28.560  0.1413E+01  0.3720E+02
  28.570  0.1425E+01  0.3721E+02
  28.580  0.1435E+01  0.3722E+02
  28.590  0.1443E+01  0.3724E+02
  28.600  0.1449E+01  0.3725E+02
  28.610  0.1453E+01  0.3727E+02
  28.620  0.1454E+01  0.3728E+02
  28.630  0.1455E+01  0.3730E+02
  28.640  0.1454E+01  0.3731E+02
  28.650  0.1453E+01  0.3733E+02
  28.660  0.1452E+01  0.3734E+02
  28.670  0.1453E+01  0.3735E+02
  28.680  0.1456E+01  0.3737E+02
  28.690  0.1462E+01  0.3738E+02
  28.700  0.1471E+01  0.3740E+02
  28.710  0.1483E+01  0.3741E+02
  28.720  0.1500E+01  0.3743E+02
  28.730  0.1520E+01  0.3744E+02
  28.740  0.1544E+01  0.3746E+02
  28.750  0.1571E+01  0.3747E+02
  28.760  0.1602E+01  0.3749E+02
  28.770  0.1635E+01  0.3751E+02
  28.780  0.1669E+01  0.3752E+02
  28.790  0.1705E+01  0.3754E+02
  28.800  0.1741E+01  0.3756E+02
  28.810  0.1777E+01  0.3758E+02
  28.820  0.1813E+01  0.3759E+02
  28.830  0.1847E+01  0.3761E+02
  28.840  0.1880E+01  0.3763E+02
  28.850  0.1911E+01  0.3765E+02
  28.860  0.1939E+01  0.3767E+02
  28.870  0.1966E+01  0.3769E+02
  28.880  0.1990E+01  0.3771E+02
  28.890  0.2011E+01  0.3773E+02
  28.900  0.2030E+01  0.3775E+02
  28.910  0.2046E+01  0.3777E+02
  28.920  0.2060E+01  0.3779E+02
  28.930  0.2070E+01  0.3781E+02
  28.940  0.2078E+01  0.3783E+02
  28.950  0.2083E+01  0.3785E+02
  28.960  0.2085E+01  0.3787E+02
  28.970  0.2083E+01  0.3789E+02
  28.980  0.2078E+01  0.3792E+02
  28.990  0.2070E+01  0.3794E+02
  29.000  0.2058E+01  0.3796E+02
  29.010  0.2042E+01  0.3798E+02
  29.020  0.2023E+01  0.3800E+02
  29.030  0.2001E+01  0.3802E+02
  29.040  0.1976E+01  0.3804E+02
  29.050  0.1947E+01  0.3806E+02
  29.060  0.1916E+01  0.3808E+02
  29.070  0.1883E+01  0.3809E+02
  29.080  0.1848E+01  0.3811E+02
  29.090  0.1812E+01  0.3813E+02
  29.100  0.1774E+01  0.3815E+02
  29.110  0.1737E+01  0.3817E+02
  29.120  0.1699E+01  0.3818E+02
  29.130  0.1662E+01  0.3820E+02
  29.140  0.1627E+01  0.3822E+02
  29.150  0.1593E+01  0.3823E+02
  29.160  0.1561E+01  0.3825E+02
  29.170  0.1531E+01  0.3826E+02
  29.180  0.1505E+01  0.3828E+02
  29.190  0.1481E+01  0.3829E+02
  29.200  0.1461E+01  0.3831E+02
  29.210  0.1445E+01  0.3832E+02
  29.220  0.1432E+01  0.3834E+02
  29.230  0.1423E+01  0.3835E+02
  29.240  0.1417E+01  0.3836E+02
  29.250  0.1415E+01  0.3838E+02
  29.260  0.1416E+01  0.3839E+02
  29.270  0.1421E+01  0.3841E+02
  29.280  0.1428E+01  0.3842E+02
  29.290  0.1438E+01  0.3844E+02
  29.300  0.1451E+01  0.3845E+02
  29.310  0.1466E+01  0.3847E+02
  29.320  0.1483E+01  0.3848E+02
  29.330  0.1503E+01  0.3849E+02
  29.340  0.1524E+01  0.3851E+02
  29.350  0.1548E+01  0.3853E+02
  29.360  0.1575E+01  0.3854E+02
  29.370  0.1603E+01  0.3856E+02
  29.380  0.1635E+01  0.3857E+02
  29.390  0.1668E+01  0.3859E+02
  29.400  0.1704E+01  0.3861E+02
  29.410  0.1742E+01  0.3862E+02
  29.420  0.1781E+01  0.3864E+02
  29.430  0.1822E+01  0.3866E+02
  29.440  0.1863E+01  0.3868E+02
  29.450  0.1905E+01  0.3870E+02
  29.460  0.1946E+01  0.3872E+02
  29.470  0.1986E+01  0.3874E+02
  29.480  0.2023E+01  0.3876E+02
  29.490  0.2059E+01  0.3878E+02
  29.500  0.2090E+01  0.3880E+02
  29.510  0.2118E+01  0.3882E+02
  29.520  0.2142E+01  0.3884E+02
  29.530  0.2161E+01  0.3886E+02
  29.540  0.2175E+01  0.3889E+02
  29.550  0.2184E+01  0.3891E+02
  29.560  0.2187E+01  0.3893E+02
  29.570  0.2185E+01  0.3895E+02
  29.580  0.2178E+01  0.3897E+02
  29.590  0.2166E+01  0.3899E+02
  29.600  0.2149E+01  0.3902E+02
  29.610  0.2128E+01  0.3904E+02
  29.620  0.2101E+01  0.3906E+02
  29.630  0.2071E+01  0.3908E+02
  29.640  0.2036E+01  0.3910E+02
  29.650  0.1998E+01  0.3912E+02
  29.660  0.1957E+01  0.3914E+02
  29.670  0.1913E+01  0.3916E+02
  29.680  0.1867E+01  0.3918E+02
  29.690  0.1820E+01  0.3920E+02
  29.700  0.1771E+01  0.3921E+02
  29.710  0.1723E+01  0.3923E+02
  29.720  0.1675E+01  0.3925E+02
  29.730  0.1628E+01  0.3926E+02
  29.740  0.1583E+01  0.3928E+02
  29.750  0.1541E+01  0.3929E+02
  29.760  0.1501E+01  0.3931E+02
  29.770  0.1465E+01  0.3932E+02
  29.780  0.1432E+01  0.3934E+02
  29.790  0.1403E+01  0.3935E+02
  29.800  0.1379E+01  0.3937E+02
  29.810  0.1358E+01  0.3938E+02
  29.820  0.1341E+01  0.3939E+02
  29.830  0.1328E+01  0.3941E+02
  29.840  0.1318E+01  0.3942E+02
  29.850  0.1311E+01  0.3943E+02
  29.860  0.1307E+01  0.3945E+02
  29.870  0.1306E+01  0.3946E+02
  29.880  0.1308E+01  0.3947E+02
  29.890  0.1311E+01  0.3948E+02
  29.900  0.1317E+01  0.3950E+02
  29.910  0.1326E+01  0.3951E+02
  29.920  0.1336E+01  0.3952E+02
  29.930  0.1348E+01  0.3954E+02
  29.940  0.1362E+01  0.3955E+02
  29.950  0.1378E+01  0.3957E+02
  29.960  0.1395E+01  0.3958E+02
  29.970  0.1415E+01  0.3959E+02
  29.980  0.1436E+01  0.3961E+02
  29.990  0.1458E+01  0.3962E+02
  30.000  0.1481E+01  0.3964E+02
